Channel			  :,CH1
Frequency			  :,F=39.45Hz
Period 			  :,T=25.35ms
PK-PK				  :,Vpp=984.0mV
Average			  :,V=7.680mV
Vertical pos		  :,0.00mV
Probe attenuation	  :,1X
Voltage per ADC value:,8.00mV
Time interval		  :,20.00uS

index,CH1_Voltage(mV)
0,-40.00
1,-40.00
2,-56.00
3,-72.00
4,-88.00
5,-112.00
6,-136.00
7,-144.00
8,-160.00
9,-184.00
10,-192.00
11,-200.00
12,-216.00
13,-216.00
14,-216.00
15,-216.00
16,-200.00
17,-184.00
18,-184.00
19,-160.00
20,-144.00
21,-136.00
22,-104.00
23,-80.00
24,-72.00
25,-56.00
26,-40.00
27,-32.00
28,-24.00
29,-40.00
30,-40.00
31,-40.00
32,-56.00
33,-72.00
34,-88.00
35,-112.00
36,-128.00
37,-144.00
38,-160.00
39,-184.00
40,-184.00
41,-200.00
42,-200.00
43,-192.00
44,-200.00
45,-192.00
46,-184.00
47,-184.00
48,-160.00
49,-144.00
50,-128.00
51,-112.00
52,-96.00
53,-72.00
54,-56.00
55,-40.00
56,-24.00
57,-40.00
58,-24.00
59,-24.00
60,-32.00
61,-40.00
62,-56.00
63,-80.00
64,-96.00
65,-112.00
66,-128.00
67,-144.00
68,-160.00
69,-176.00
70,-184.00
71,-184.00
72,-184.00
73,-192.00
74,-192.00
75,-184.00
76,-176.00
77,-160.00
78,-144.00
79,-128.00
80,-112.00
81,-96.00
82,-80.00
83,-64.00
84,-48.00
85,-32.00
86,-32.00
87,-24.00
88,-24.00
89,-24.00
90,-32.00
91,-56.00
92,-64.00
93,-80.00
94,-104.00
95,-112.00
96,-128.00
97,-144.00
98,-160.00
99,-176.00
100,-184.00
101,-184.00
102,-184.00
103,-184.00
104,-184.00
105,-176.00
106,-160.00
107,-152.00
108,-136.00
109,-120.00
110,-104.00
111,-88.00
112,-64.00
113,-56.00
114,-32.00
115,-32.00
116,-24.00
117,-16.00
118,-24.00
119,-24.00
120,-40.00
121,-56.00
122,-64.00
123,-80.00
124,-104.00
125,-112.00
126,-128.00
127,-144.00
128,-152.00
129,-168.00
130,-176.00
131,-176.00
132,-176.00
133,-176.00
134,-176.00
135,-160.00
136,-152.00
137,-136.00
138,-128.00
139,-104.00
140,-88.00
141,-72.00
142,-56.00
143,-48.00
144,-24.00
145,-24.00
146,-16.00
147,-16.00
148,-24.00
149,-40.00
150,-32.00
151,-56.00
152,-64.00
153,-88.00
154,-104.00
155,-112.00
156,-128.00
157,-144.00
158,-152.00
159,-160.00
160,-176.00
161,-176.00
162,-176.00
163,488.00
164,472.00
165,456.00
166,408.00
167,360.00
168,328.00
169,280.00
170,240.00
171,200.00
172,168.00
173,136.00
174,104.00
175,96.00
176,96.00
177,96.00
178,112.00
179,128.00
180,160.00
181,192.00
182,232.00
183,272.00
184,312.00
185,352.00
186,392.00
187,432.00
188,456.00
189,456.00
190,480.00
191,480.00
192,472.00
193,464.00
194,448.00
195,416.00
196,368.00
197,336.00
198,288.00
199,256.00
200,216.00
201,176.00
202,144.00
203,120.00
204,96.00
205,96.00
206,88.00
207,96.00
208,112.00
209,128.00
210,168.00
211,200.00
212,240.00
213,280.00
214,320.00
215,360.00
216,392.00
217,416.00
218,424.00
219,456.00
220,464.00
221,456.00
222,456.00
223,440.00
224,408.00
225,368.00
226,344.00
227,304.00
228,272.00
229,224.00
230,192.00
231,152.00
232,120.00
233,104.00
234,96.00
235,88.00
236,88.00
237,104.00
238,104.00
239,144.00
240,168.00
241,208.00
242,240.00
243,280.00
244,320.00
245,352.00
246,392.00
247,400.00
248,432.00
249,432.00
250,440.00
251,440.00
252,424.00
253,408.00
254,376.00
255,344.00
256,312.00
257,272.00
258,240.00
259,200.00
260,168.00
261,136.00
262,104.00
263,96.00
264,88.00
265,88.00
266,88.00
267,96.00
268,120.00
269,152.00
270,176.00
271,216.00
272,248.00
273,288.00
274,312.00
275,352.00
276,384.00
277,400.00
278,416.00
279,416.00
280,416.00
281,416.00
282,392.00
283,376.00
284,344.00
285,320.00
286,280.00
287,240.00
288,216.00
289,176.00
290,152.00
291,120.00
292,96.00
293,80.00
294,88.00
295,88.00
296,88.00
297,104.00
298,120.00
299,160.00
300,176.00
301,216.00
302,256.00
303,280.00
304,320.00
305,344.00
306,360.00
307,384.00
308,400.00
309,400.00
310,400.00
311,384.00
312,360.00
313,344.00
314,312.00
315,280.00
316,256.00
317,224.00
318,184.00
319,152.00
320,128.00
321,96.00
322,96.00
323,88.00
324,88.00
325,88.00
326,96.00
327,112.00
328,136.00
329,168.00
330,192.00
331,224.00
332,256.00
333,280.00
334,320.00
335,344.00
336,360.00
337,376.00
338,376.00
339,384.00
340,376.00
341,360.00
342,344.00
343,320.00
344,280.00
345,256.00
346,224.00
347,192.00
348,168.00
349,144.00
350,96.00
351,88.00
352,88.00
353,80.00
354,80.00
355,88.00
356,88.00
357,96.00
358,136.00
359,168.00
360,192.00
361,232.00
362,264.00
363,288.00
364,312.00
365,336.00
366,344.00
367,360.00
368,360.00
369,360.00
370,352.00
371,336.00
372,320.00
373,280.00
374,264.00
375,232.00
376,192.00
377,176.00
378,136.00
379,112.00
380,96.00
381,88.00
382,72.00
383,64.00
384,80.00
385,88.00
386,88.00
387,104.00
388,136.00
389,176.00
390,192.00
391,216.00
392,256.00
393,280.00
394,296.00
395,328.00
396,336.00
397,344.00
398,344.00
399,336.00
400,336.00
401,312.00
402,296.00
403,272.00
404,240.00
405,208.00
406,184.00
407,152.00
408,120.00
409,104.00
410,88.00
411,80.00
412,72.00
413,64.00
414,80.00
415,88.00
416,104.00
417,120.00
418,152.00
419,176.00
420,208.00
421,224.00
422,256.00
423,280.00
424,296.00
425,312.00
426,328.00
427,328.00
428,320.00
429,320.00
430,312.00
431,280.00
432,272.00
433,240.00
434,216.00
435,176.00
436,160.00
437,136.00
438,96.00
439,80.00
440,80.00
441,72.00
442,64.00
443,64.00
444,80.00
445,88.00
446,104.00
447,120.00
448,152.00
449,176.00
450,208.00
451,224.00
452,256.00
453,280.00
454,288.00
455,304.00
456,312.00
457,320.00
458,312.00
459,296.00
460,280.00
461,272.00
462,240.00
463,216.00
464,184.00
465,168.00
466,144.00
467,112.00
468,88.00
469,80.00
470,72.00
471,64.00
472,64.00
473,64.00
474,80.00
475,88.00
476,104.00
477,136.00
478,152.00
479,176.00
480,208.00
481,232.00
482,248.00
483,272.00
484,288.00
485,296.00
486,296.00
487,296.00
488,288.00
489,280.00
490,272.00
491,240.00
492,224.00
493,192.00
494,160.00
495,152.00
496,120.00
497,104.00
498,88.00
499,72.00
500,64.00
501,56.00
502,56.00
503,64.00
504,80.00
505,88.00
506,104.00
507,144.00
508,160.00
509,176.00
510,208.00
511,224.00
512,256.00
513,272.00
514,272.00
515,280.00
516,288.00
517,280.00
518,272.00
519,256.00
520,240.00
521,224.00
522,192.00
523,176.00
524,152.00
525,120.00
526,104.00
527,88.00
528,72.00
529,72.00
530,64.00
531,56.00
532,64.00
533,64.00
534,88.00
535,96.00
536,104.00
537,128.00
538,168.00
539,184.00
540,208.00
541,232.00
542,240.00
543,248.00
544,272.00
545,272.00
546,272.00
547,272.00
548,248.00
549,240.00
550,224.00
551,192.00
552,176.00
553,160.00
554,136.00
555,112.00
556,88.00
557,88.00
558,64.00
559,64.00
560,48.00
561,56.00
562,56.00
563,64.00
564,80.00
565,104.00
566,120.00
567,136.00
568,168.00
569,192.00
570,200.00
571,224.00
572,240.00
573,256.00
574,240.00
575,248.00
576,256.00
577,256.00
578,240.00
579,224.00
580,200.00
581,176.00
582,160.00
583,136.00
584,112.00
585,96.00
586,80.00
587,64.00
588,56.00
589,40.00
590,56.00
591,56.00
592,64.00
593,72.00
594,88.00
595,104.00
596,128.00
597,144.00
598,168.00
599,184.00
600,240.00
601,240.00
602,256.00
603,240.00
604,240.00
605,224.00
606,216.00
607,200.00
608,176.00
609,168.00
610,144.00
611,120.00
612,96.00
613,88.00
614,64.00
615,48.00
616,56.00
617,48.00
618,56.00
619,56.00
620,56.00
621,80.00
622,80.00
623,104.00
624,128.00
625,152.00
626,168.00
627,184.00
628,200.00
629,216.00
630,224.00
631,216.00
632,232.00
633,232.00
634,224.00
635,216.00
636,208.00
637,192.00
638,168.00
639,152.00
640,128.00
641,104.00
642,80.00
643,80.00
644,64.00
645,56.00
646,48.00
647,48.00
648,48.00
649,48.00
650,64.00
651,80.00
652,88.00
653,104.00
654,120.00
655,152.00
656,168.00
657,176.00
658,200.00
659,208.00
660,224.00
661,224.00
662,224.00
663,216.00
664,216.00
665,200.00
666,192.00
667,176.00
668,152.00
669,136.00
670,96.00
671,88.00
672,80.00
673,64.00
674,48.00
675,48.00
676,48.00
677,48.00
678,48.00
679,48.00
680,64.00
681,80.00
682,96.00
683,104.00
684,120.00
685,152.00
686,168.00
687,176.00
688,192.00
689,208.00
690,216.00
691,216.00
692,208.00
693,208.00
694,200.00
695,184.00
696,168.00
697,160.00
698,144.00
699,120.00
700,104.00
701,88.00
702,72.00
703,48.00
704,48.00
705,48.00
706,40.00
707,48.00
708,48.00
709,48.00
710,72.00
711,88.00
712,96.00
713,112.00
714,136.00
715,152.00
716,160.00
717,176.00
718,192.00
719,200.00
720,200.00
721,200.00
722,200.00
723,192.00
724,176.00
725,168.00
726,168.00
727,128.00
728,120.00
729,104.00
730,88.00
731,80.00
732,64.00
733,56.00
734,40.00
735,40.00
736,40.00
737,32.00
738,48.00
739,64.00
740,72.00
741,88.00
742,104.00
743,112.00
744,136.00
745,152.00
746,168.00
747,176.00
748,184.00
749,192.00
750,184.00
751,192.00
752,192.00
753,184.00
754,168.00
755,160.00
756,144.00
757,120.00
758,96.00
759,96.00
760,80.00
761,64.00
762,40.00
763,40.00
764,40.00
765,32.00
766,40.00
767,40.00
768,40.00
769,56.00
770,72.00
771,88.00
772,104.00
773,120.00
774,136.00
775,152.00
776,168.00
777,176.00
778,176.00
779,176.00
780,184.00
781,184.00
782,176.00
783,160.00
784,160.00
785,144.00
786,128.00
787,96.00
788,-272.00
789,-224.00
790,-184.00
791,-152.00
792,-120.00
793,-112.00
794,-96.00
795,-96.00
796,-96.00
797,-120.00
798,-144.00
799,-184.00
800,-216.00
801,-256.00
802,-288.00
803,-328.00
804,-368.00
805,-408.00
806,-432.00
807,-464.00
808,-472.00
809,-480.00
810,-472.00
811,-464.00
812,-456.00
813,-432.00
814,-392.00
815,-368.00
816,-320.00
817,-280.00
818,-248.00
819,-192.00
820,-168.00
821,-136.00
822,-112.00
823,-96.00
824,-96.00
825,-96.00
826,-104.00
827,-128.00
828,-152.00
829,-184.00
830,-216.00
831,-256.00
832,-288.00
833,-344.00
834,-368.00
835,-400.00
836,-432.00
837,-448.00
838,-464.00
839,-464.00
840,-456.00
841,-440.00
842,-424.00
843,-392.00
844,-368.00
845,-320.00
846,-288.00
847,-256.00
848,-216.00
849,-176.00
850,-144.00
851,-120.00
852,-104.00
853,-88.00
854,-88.00
855,-88.00
856,-112.00
857,-128.00
858,-160.00
859,-184.00
860,-232.00
861,-264.00
862,-296.00
863,-336.00
864,-368.00
865,-392.00
866,-416.00
867,-424.00
868,-432.00
869,-432.00
870,-424.00
871,-408.00
872,-392.00
873,-368.00
874,-328.00
875,-288.00
876,-256.00
877,-224.00
878,-184.00
879,-152.00
880,-120.00
881,-96.00
882,-96.00
883,-80.00
884,-88.00
885,-96.00
886,-112.00
887,-128.00
888,-160.00
889,-192.00
890,-232.00
891,-272.00
892,-304.00
893,-336.00
894,-368.00
895,-376.00
896,-392.00
897,-408.00
898,-416.00
899,-416.00
900,-392.00
901,-384.00
902,-368.00
903,-336.00
904,-296.00
905,-264.00
906,-232.00
907,-192.00
908,-160.00
909,-128.00
910,-112.00
911,-88.00
912,-80.00
913,-80.00
914,-88.00
915,-96.00
916,-112.00
917,-136.00
918,-168.00
919,-192.00
920,-232.00
921,-272.00
922,-304.00
923,-328.00
924,-360.00
925,-376.00
926,-384.00
927,-392.00
928,-392.00
929,-392.00
930,-376.00
931,-360.00
932,-328.00
933,-304.00
934,-272.00
935,-240.00
936,-200.00
937,-176.00
938,-136.00
939,-112.00
940,-96.00
941,-80.00
942,-80.00
943,-80.00
944,-80.00
945,-96.00
946,-112.00
947,-136.00
948,-176.00
949,-200.00
950,-240.00
951,-272.00
952,-296.00
953,-328.00
954,-352.00
955,-368.00
956,-368.00
957,-376.00
958,-368.00
959,-368.00
960,-352.00
961,-328.00
962,-304.00
963,-272.00
964,-240.00
965,-208.00
966,-176.00
967,-144.00
968,-120.00
969,-96.00
970,-80.00
971,-72.00
972,-72.00
973,-80.00
974,-88.00
975,-96.00
976,-120.00
977,-144.00
978,-176.00
979,-216.00
980,-248.00
981,-272.00
982,-296.00
983,-320.00
984,-344.00
985,-352.00
986,-368.00
987,-360.00
988,-352.00
989,-344.00
990,-320.00
991,-304.00
992,-272.00
993,-256.00
994,-216.00
995,-184.00
996,-152.00
997,-128.00
998,-96.00
999,-88.00
1000,-72.00
1001,-72.00
1002,-64.00
1003,-72.00
1004,-88.00
1005,-104.00
1006,-120.00
1007,-152.00
1008,-184.00
1009,-224.00
1010,-248.00
1011,-272.00
1012,-288.00
1013,-304.00
1014,-320.00
1015,-336.00
1016,-336.00
1017,-344.00
1018,-336.00
1019,-320.00
1020,-304.00
1021,-272.00
1022,-248.00
1023,-216.00
1024,-184.00
1025,-168.00
1026,-136.00
1027,-112.00
1028,-96.00
1029,-72.00
1030,-72.00
1031,-64.00
1032,-72.00
1033,-72.00
1034,-88.00
1035,-104.00
1036,-128.00
1037,-160.00
1038,-184.00
1039,-216.00
1040,-256.00
1041,-264.00
1042,-288.00
1043,-304.00
1044,-312.00
1045,-320.00
1046,-320.00
1047,-312.00
1048,-304.00
1049,-296.00
1050,-280.00
1051,-248.00
1052,-232.00
1053,-192.00
1054,-168.00
1055,-144.00
1056,-112.00
1057,-96.00
1058,-80.00
1059,-64.00
1060,-56.00
1061,-56.00
1062,-64.00
1063,-72.00
1064,-88.00
1065,-104.00
1066,-136.00
1067,-160.00
1068,-184.00
1069,-208.00
1070,-240.00
1071,-264.00
1072,-280.00
1073,-288.00
1074,-304.00
1075,-304.00
1076,-304.00
1077,-296.00
1078,-280.00
1079,-272.00
1080,-256.00
1081,-232.00
1082,-200.00
1083,-184.00
1084,-152.00
1085,-128.00
1086,-104.00
1087,-80.00
1088,-64.00
1089,-56.00
1090,-56.00
1091,-56.00
1092,-56.00
1093,-72.00
1094,-96.00
1095,-112.00
1096,-136.00
1097,-168.00
1098,-192.00
1099,-224.00
1100,-240.00
1101,-256.00
1102,-272.00
1103,-288.00
1104,-288.00
1105,-288.00
1106,-288.00
1107,-280.00
1108,-272.00
1109,-256.00
1110,-232.00
1111,-200.00
1112,-176.00
1113,-160.00
1114,-128.00
1115,-104.00
1116,-88.00
1117,-64.00
1118,-56.00
1119,-48.00
1120,-48.00
1121,-56.00
1122,-56.00
1123,-80.00
1124,-96.00
1125,-120.00
1126,-136.00
1127,-168.00
1128,-192.00
1129,-208.00
1130,-232.00
1131,-256.00
1132,-264.00
1133,-272.00
1134,-280.00
1135,-280.00
1136,-272.00
1137,-256.00
1138,-248.00
1139,-232.00
1140,-200.00
1141,-184.00
1142,-160.00
1143,-136.00
1144,-112.00
1145,-96.00
1146,-72.00
1147,-56.00
1148,-48.00
1149,-40.00
1150,-40.00
1151,-56.00
1152,-64.00
1153,-80.00
1154,-96.00
1155,-120.00
1156,-144.00
1157,-168.00
1158,-184.00
1159,-208.00
1160,-232.00
1161,-248.00
1162,-256.00
1163,-264.00
1164,-264.00
1165,-264.00
1166,-256.00
1167,-240.00
1168,-232.00
1169,-208.00
1170,-184.00
1171,-160.00
1172,-136.00
1173,-120.00
1174,-96.00
1175,-80.00
1176,-64.00
1177,-48.00
1178,-40.00
1179,-40.00
1180,-40.00
1181,-56.00
1182,-72.00
1183,-80.00
1184,-104.00
1185,-120.00
1186,-144.00
1187,-176.00
1188,-184.00
1189,-216.00
1190,-232.00
1191,-240.00
1192,-248.00
1193,-256.00
1194,-256.00
1195,-248.00
1196,-240.00
1197,-232.00
1198,-208.00
1199,-184.00
1200,-128.00
1201,-104.00
1202,-80.00
1203,-64.00
1204,-56.00
1205,-40.00
1206,-32.00
1207,-40.00
1208,-32.00
1209,-56.00
1210,-72.00
1211,-80.00
1212,-112.00
1213,-128.00
1214,-144.00
1215,-176.00
1216,-184.00
1217,-200.00
1218,-216.00
1219,-232.00
1220,-240.00
1221,-240.00
1222,-240.00
1223,-232.00
1224,-216.00
1225,-200.00
1226,-184.00
1227,-176.00
1228,-152.00
1229,-128.00
1230,-112.00
1231,-88.00
1232,-72.00
1233,-56.00
1234,-40.00
1235,-40.00
1236,-32.00
1237,-32.00
1238,-40.00
1239,-56.00
1240,-72.00
1241,-88.00
1242,-104.00
1243,-128.00
1244,-152.00
1245,-176.00
1246,-184.00
1247,-200.00
1248,-216.00
1249,-224.00
1250,-224.00
1251,-232.00
1252,-224.00
1253,-208.00
1254,-192.00
1255,-184.00
1256,-176.00
1257,-152.00
1258,-136.00
1259,-112.00
1260,-96.00
1261,-72.00
1262,-56.00
1263,-40.00
1264,-48.00
1265,-32.00
1266,-40.00
1267,-40.00
1268,-40.00
1269,-56.00
1270,-80.00
1271,-104.00
1272,-112.00
1273,-128.00
1274,-152.00
1275,-176.00
1276,-184.00
1277,-192.00
1278,-200.00
1279,-208.00
1280,-216.00
1281,-216.00
1282,-208.00
1283,-192.00
1284,-184.00
1285,-168.00
1286,-160.00
1287,-136.00
1288,-112.00
1289,-104.00
1290,-80.00
1291,-64.00
1292,-40.00
1293,-40.00
1294,-40.00
1295,-24.00
1296,-32.00
1297,-32.00
1298,-48.00
1299,-56.00
1300,-80.00
1301,-96.00
1302,-112.00
1303,-128.00
1304,-152.00
1305,-168.00
1306,-184.00
1307,-184.00
1308,-200.00
1309,-200.00
1310,-200.00
1311,-192.00
1312,-184.00
1313,-184.00
1314,-176.00
1315,-160.00
1316,-136.00
1317,-128.00
1318,-112.00
1319,-88.00
1320,-64.00
1321,-48.00
1322,-40.00
1323,-32.00
1324,-24.00
1325,-24.00
1326,-32.00
1327,-32.00
1328,-48.00
1329,-64.00
1330,-80.00
1331,-96.00
1332,-112.00
1333,-136.00
1334,-152.00
1335,-168.00
1336,-176.00
1337,-184.00
1338,-184.00
1339,-192.00
1340,-184.00
1341,-184.00
1342,-184.00
1343,-176.00
1344,-160.00
1345,-144.00
1346,-120.00
1347,-104.00
1348,-96.00
1349,-72.00
1350,-48.00
1351,-40.00
1352,-32.00
1353,-32.00
1354,-24.00
1355,-24.00
1356,-40.00
1357,-32.00
1358,-56.00
1359,-64.00
1360,-88.00
1361,-96.00
1362,-120.00
1363,-136.00
1364,-152.00
1365,-160.00
1366,-176.00
1367,-184.00
1368,-184.00
1369,-184.00
1370,-184.00
1371,-184.00
1372,-176.00
1373,-160.00
1374,-144.00
1375,-128.00
1376,-112.00
1377,-96.00
1378,-80.00
1379,-64.00
1380,-40.00
1381,-32.00
1382,-24.00
1383,-16.00
1384,-16.00
1385,-32.00
1386,-32.00
1387,-40.00
1388,-56.00
1389,-72.00
1390,-88.00
1391,-112.00
1392,-128.00
1393,-128.00
1394,-144.00
1395,-160.00
1396,-176.00
1397,-176.00
1398,-176.00
1399,-176.00
1400,-176.00
1401,-168.00
1402,-152.00
1403,-144.00
1404,-128.00
1405,-112.00
1406,-104.00
1407,-80.00
1408,-64.00
1409,-56.00
1410,-32.00
1411,-24.00
1412,-16.00
1413,-16.00
1414,-24.00
1415,-24.00
1416,-32.00
1417,-40.00
1418,-64.00
1419,-72.00
1420,-88.00
1421,-104.00
1422,-120.00
1423,-136.00
1424,-136.00
1425,-160.00
1426,480.00
1427,496.00
1428,504.00
1429,488.00
1430,472.00
1431,456.00
1432,440.00
1433,392.00
1434,352.00
1435,312.00
1436,272.00
1437,224.00
1438,192.00
1439,152.00
1440,120.00
1441,104.00
1442,88.00
1443,96.00
1444,96.00
1445,104.00
1446,136.00
1447,168.00
1448,200.00
1449,240.00
1450,288.00
1451,328.00
1452,368.00
1453,400.00
1454,432.00
1455,456.00
1456,472.00
1457,472.00
1458,472.00
1459,464.00
1460,456.00
1461,432.00
1462,392.00
1463,360.00
1464,320.00
1465,280.00
1466,240.00
1467,184.00
1468,168.00
1469,136.00
1470,104.00
1471,104.00
1472,88.00
1473,96.00
1474,96.00
1475,120.00
1476,136.00
1477,176.00
1478,208.00
1479,256.00
1480,288.00
1481,328.00
1482,360.00
1483,400.00
1484,432.00
1485,448.00
1486,456.00
1487,456.00
1488,456.00
1489,424.00
1490,424.00
1491,400.00
1492,360.00
1493,328.00
1494,272.00
1495,248.00
1496,216.00
1497,176.00
1498,136.00
1499,120.00
1500,96.00
1501,88.00
1502,88.00
1503,88.00
1504,104.00
1505,128.00
1506,152.00
1507,176.00
1508,224.00
1509,256.00
1510,288.00
1511,328.00
1512,360.00
1513,400.00
1514,416.00
1515,432.00
1516,440.00
1517,440.00
1518,440.00
1519,416.00
1520,392.00
1521,360.00
1522,336.00
1523,296.00
1524,264.00
1525,224.00
1526,184.00
1527,152.00
1528,120.00
1529,104.00
1530,88.00
1531,88.00
1532,88.00
1533,88.00
1534,104.00
1535,120.00
1536,160.00
1537,192.00
1538,216.00
1539,256.00
1540,296.00
1541,336.00
1542,360.00
1543,384.00
1544,400.00
1545,408.00
1546,416.00
1547,416.00
1548,400.00
1549,384.00
1550,360.00
1551,336.00
1552,304.00
1553,272.00
1554,216.00
1555,176.00
1556,168.00
1557,128.00
1558,112.00
1559,96.00
1560,88.00
1561,80.00
1562,88.00
1563,88.00
1564,104.00
1565,136.00
1566,168.00
1567,200.00
1568,224.00
1569,264.00
1570,296.00
1571,328.00
1572,352.00
1573,376.00
1574,392.00
1575,400.00
1576,400.00
1577,392.00
1578,376.00
1579,360.00
1580,336.00
1581,296.00
1582,272.00
1583,240.00
1584,200.00
1585,168.00
1586,144.00
1587,104.00
1588,96.00
1589,88.00
1590,80.00
1591,80.00
1592,88.00
1593,88.00
1594,112.00
1595,144.00
1596,168.00
1597,208.00
1598,224.00
1599,272.00
1600,296.00
1601,320.00
1602,344.00
1603,360.00
1604,376.00
1605,376.00
1606,360.00
1607,360.00
1608,352.00
1609,336.00
1610,312.00
1611,272.00
1612,248.00
1613,216.00
1614,176.00
1615,160.00
1616,120.00
1617,104.00
1618,88.00
1619,80.00
1620,80.00
1621,80.00
1622,88.00
1623,96.00
1624,120.00
1625,152.00
1626,168.00
1627,208.00
1628,240.00
1629,272.00
1630,296.00
1631,312.00
1632,336.00
1633,352.00
1634,360.00
1635,360.00
1636,360.00
1637,344.00
1638,336.00
1639,304.00
1640,280.00
1641,256.00
1642,224.00
1643,192.00
1644,160.00
1645,136.00
1646,104.00
1647,80.00
1648,80.00
1649,64.00
1650,72.00
1651,88.00
1652,88.00
1653,104.00
1654,128.00
1655,152.00
1656,184.00
1657,208.00
1658,240.00
1659,272.00
1660,280.00
1661,320.00
1662,336.00
1663,344.00
1664,336.00
1665,344.00
1666,344.00
1667,320.00
1668,296.00
1669,280.00
1670,248.00
1671,224.00
1672,192.00
1673,168.00
1674,136.00
1675,104.00
1676,88.00
1677,88.00
1678,64.00
1679,64.00
1680,72.00
1681,80.00
1682,80.00
1683,112.00
1684,128.00
1685,160.00
1686,176.00
1687,216.00
1688,240.00
1689,264.00
1690,280.00
1691,296.00
1692,320.00
1693,328.00
1694,328.00
1695,320.00
1696,312.00
1697,296.00
1698,280.00
1699,256.00
1700,224.00
1701,200.00
1702,176.00
1703,144.00
1704,120.00
1705,96.00
1706,88.00
1707,72.00
1708,64.00
1709,64.00
1710,64.00
1711,80.00
1712,96.00
1713,104.00
1714,136.00
1715,168.00
1716,184.00
1717,208.00
1718,240.00
1719,272.00
1720,280.00
1721,296.00
1722,312.00
1723,320.00
1724,304.00
1725,296.00
1726,288.00
1727,280.00
1728,256.00
1729,216.00
1730,208.00
1731,176.00
1732,152.00
1733,128.00
1734,104.00
1735,88.00
1736,72.00
1737,64.00
1738,64.00
1739,64.00
1740,64.00
1741,80.00
1742,88.00
1743,104.00
1744,144.00
1745,168.00
1746,184.00
1747,216.00
1748,240.00
1749,248.00
1750,272.00
1751,288.00
1752,296.00
1753,296.00
1754,296.00
1755,288.00
1756,272.00
1757,256.00
1758,240.00
1759,216.00
1760,176.00
1761,168.00
1762,136.00
1763,112.00
1764,88.00
1765,80.00
1766,72.00
1767,56.00
1768,56.00
1769,64.00
1770,64.00
1771,88.00
1772,96.00
1773,112.00
1774,136.00
1775,168.00
1776,192.00
1777,216.00
1778,240.00
1779,248.00
1780,272.00
1781,272.00
1782,280.00
1783,280.00
1784,280.00
1785,272.00
1786,256.00
1787,224.00
1788,216.00
1789,184.00
1790,160.00
1791,144.00
1792,120.00
1793,88.00
1794,80.00
1795,64.00
1796,56.00
1797,56.00
1798,56.00
1799,64.00
1800,96.00
1801,120.00
1802,144.00
1803,160.00
1804,192.00
1805,216.00
1806,224.00
1807,256.00
1808,256.00
1809,272.00
1810,272.00
1811,272.00
1812,264.00
1813,248.00
1814,232.00
1815,216.00
1816,192.00
1817,176.00
1818,152.00
1819,128.00
1820,104.00
1821,88.00
1822,72.00
1823,56.00
1824,48.00
1825,48.00
1826,56.00
1827,64.00
1828,80.00
1829,88.00
1830,104.00
1831,128.00
1832,152.00
1833,176.00
1834,192.00
1835,216.00
1836,224.00
1837,240.00
1838,256.00
1839,264.00
1840,256.00
1841,248.00
1842,248.00
1843,224.00
1844,216.00
1845,192.00
1846,176.00
1847,152.00
1848,128.00
1849,112.00
1850,80.00
1851,80.00
1852,64.00
1853,48.00
1854,40.00
1855,48.00
1856,56.00
1857,64.00
1858,80.00
1859,88.00
1860,112.00
1861,128.00
1862,152.00
1863,160.00
1864,192.00
1865,208.00
1866,224.00
1867,224.00
1868,240.00
1869,240.00
1870,240.00
1871,240.00
1872,224.00
1873,216.00
1874,200.00
1875,176.00
1876,160.00
1877,136.00
1878,104.00
1879,88.00
1880,80.00
1881,72.00
1882,48.00
1883,40.00
1884,48.00
1885,48.00
1886,56.00
1887,64.00
1888,88.00
1889,88.00
1890,96.00
1891,128.00
1892,160.00
1893,176.00
1894,192.00
1895,208.00
1896,224.00
1897,216.00
1898,232.00
1899,216.00
1900,216.00
1901,224.00
1902,216.00
1903,192.00
1904,176.00
1905,168.00
1906,128.00
1907,120.00
1908,104.00
1909,80.00
1910,64.00
1911,56.00
1912,48.00
1913,48.00
1914,48.00
1915,48.00
1916,56.00
1917,64.00
1918,88.00
1919,96.00
1920,104.00
1921,128.00
1922,160.00
1923,168.00
1924,184.00
1925,192.00
1926,216.00
1927,224.00
1928,216.00
1929,224.00
1930,216.00
1931,216.00
1932,192.00
1933,176.00
1934,168.00
1935,136.00
1936,120.00
1937,104.00
1938,88.00
1939,80.00
1940,64.00
1941,48.00
1942,48.00
1943,40.00
1944,48.00
1945,48.00
1946,64.00
1947,64.00
1948,88.00
1949,96.00
1950,120.00
1951,144.00
1952,160.00
1953,168.00
1954,184.00
1955,192.00
1956,208.00
1957,216.00
1958,216.00
1959,208.00
1960,200.00
1961,192.00
1962,176.00
1963,168.00
1964,144.00
1965,128.00
1966,96.00
1967,96.00
1968,80.00
1969,64.00
1970,56.00
1971,48.00
1972,40.00
1973,40.00
1974,48.00
1975,48.00
1976,56.00
1977,72.00
1978,80.00
1979,96.00
1980,120.00
1981,144.00
1982,160.00
1983,176.00
1984,176.00
1985,192.00
1986,184.00
1987,208.00
1988,192.00
1989,200.00
1990,184.00
1991,176.00
1992,168.00
1993,144.00
1994,136.00
1995,96.00
1996,96.00
1997,80.00
1998,64.00
1999,56.00
2000,48.00
2001,40.00
2002,40.00
2003,40.00
2004,48.00
2005,56.00
2006,64.00
2007,80.00
2008,88.00
2009,104.00
2010,128.00
2011,144.00
2012,152.00
2013,168.00
2014,176.00
2015,184.00
2016,192.00
2017,192.00
2018,192.00
2019,176.00
2020,176.00
2021,168.00
2022,152.00
2023,136.00
2024,120.00
2025,104.00
2026,88.00
2027,80.00
2028,64.00
2029,56.00
2030,40.00
2031,40.00
2032,32.00
2033,40.00
2034,40.00
2035,56.00
2036,64.00
2037,88.00
2038,88.00
2039,104.00
2040,120.00
2041,136.00
2042,152.00
2043,168.00
2044,168.00
2045,184.00
2046,184.00
2047,176.00
2048,176.00
2049,176.00
2050,168.00
2051,152.00
2052,-376.00
2053,-336.00
2054,-296.00
2055,-256.00
2056,-216.00
2057,-176.00
2058,-144.00
2059,-112.00
2060,-104.00
2061,-96.00
2062,-104.00
2063,-112.00
2064,-128.00
2065,-160.00
2066,-184.00
2067,-232.00
2068,-272.00
2069,-304.00
2070,-352.00
2071,-384.00
2072,-416.00
2073,-440.00
2074,-464.00
2075,-488.00
2076,-472.00
2077,-480.00
2078,-464.00
2079,-440.00
2080,-416.00
2081,-384.00
2082,-344.00
2083,-304.00
2084,-272.00
2085,-232.00
2086,-184.00
2087,-144.00
2088,-136.00
2089,-96.00
2090,-96.00
2091,-96.00
2092,-104.00
2093,-112.00
2094,-128.00
2095,-160.00
2096,-192.00
2097,-240.00
2098,-280.00
2099,-312.00
2100,-352.00
2101,-376.00
2102,-408.00
2103,-432.00
2104,-448.00
2105,-456.00
2106,-464.00
2107,-448.00
2108,-432.00
2109,-408.00
2110,-384.00
2111,-352.00
2112,-312.00
2113,-272.00
2114,-232.00
2115,-192.00
2116,-160.00
2117,-128.00
2118,-112.00
2119,-96.00
2120,-96.00
2121,-88.00
2122,-96.00
2123,-112.00
2124,-136.00
2125,-168.00
2126,-200.00
2127,-248.00
2128,-272.00
2129,-312.00
2130,-352.00
2131,-368.00
2132,-392.00
2133,-424.00
2134,-432.00
2135,-432.00
2136,-432.00
2137,-424.00
2138,-408.00
2139,-376.00
2140,-352.00
2141,-312.00
2142,-280.00
2143,-248.00
2144,-200.00
2145,-176.00
2146,-136.00
2147,-112.00
2148,-96.00
2149,-88.00
2150,-80.00
2151,-88.00
2152,-96.00
2153,-112.00
2154,-136.00
2155,-176.00
2156,-216.00
2157,-248.00
2158,-280.00
2159,-312.00
2160,-352.00
2161,-368.00
2162,-384.00
2163,-408.00
2164,-408.00
2165,-416.00
2166,-408.00
2167,-392.00
2168,-376.00
2169,-352.00
2170,-320.00
2171,-288.00
2172,-248.00
2173,-216.00
2174,-184.00
2175,-144.00
2176,-120.00
2177,-96.00
2178,-88.00
2179,-80.00
2180,-80.00
2181,-88.00
2182,-96.00
2183,-128.00
2184,-144.00
2185,-184.00
2186,-208.00
2187,-256.00
2188,-280.00
2189,-304.00
2190,-344.00
2191,-368.00
2192,-376.00
2193,-392.00
2194,-392.00
2195,-392.00
2196,-376.00
2197,-368.00
2198,-352.00
2199,-312.00
2200,-288.00
2201,-256.00
2202,-224.00
2203,-184.00
2204,-160.00
2205,-128.00
2206,-104.00
2207,-88.00
2208,-80.00
2209,-72.00
2210,-80.00
2211,-88.00
2212,-104.00
2213,-120.00
2214,-152.00
2215,-184.00
2216,-224.00
2217,-248.00
2218,-280.00
2219,-304.00
2220,-328.00
2221,-352.00
2222,-360.00
2223,-368.00
2224,-368.00
2225,-368.00
2226,-368.00
2227,-352.00
2228,-312.00
2229,-288.00
2230,-264.00
2231,-232.00
2232,-184.00
2233,-168.00
2234,-128.00
2235,-112.00
2236,-96.00
2237,-80.00
2238,-72.00
2239,-80.00
2240,-80.00
2241,-96.00
2242,-104.00
2243,-128.00
2244,-160.00
2245,-184.00
2246,-216.00
2247,-248.00
2248,-280.00
2249,-304.00
2250,-328.00
2251,-344.00
2252,-352.00
2253,-360.00
2254,-360.00
2255,-352.00
2256,-336.00
2257,-312.00
2258,-288.00
2259,-264.00
2260,-232.00
2261,-192.00
2262,-176.00
2263,-136.00
2264,-120.00
2265,-96.00
2266,-80.00
2267,-72.00
2268,-64.00
2269,-64.00
2270,-80.00
2271,-88.00
2272,-112.00
2273,-136.00
2274,-160.00
2275,-184.00
2276,-224.00
2277,-248.00
2278,-280.00
2279,-296.00
2280,-320.00
2281,-336.00
2282,-336.00
2283,-344.00
2284,-328.00
2285,-320.00
2286,-304.00
2287,-288.00
2288,-272.00
2289,-232.00
2290,-216.00
2291,-176.00
2292,-160.00
2293,-128.00
2294,-104.00
2295,-88.00
2296,-72.00
2297,-56.00
2298,-56.00
2299,-64.00
2300,-80.00
2301,-88.00
2302,-112.00
2303,-144.00
2304,-176.00
2305,-184.00
2306,-216.00
2307,-248.00
2308,-272.00
2309,-288.00
2310,-304.00
2311,-320.00
2312,-320.00
2313,-312.00
2314,-312.00
2315,-304.00
2316,-280.00
2317,-264.00
2318,-240.00
2319,-208.00
2320,-184.00
2321,-160.00
2322,-128.00
2323,-104.00
2324,-88.00
2325,-80.00
2326,-56.00
2327,-56.00
2328,-56.00
2329,-72.00
2330,-80.00
2331,-104.00
2332,-112.00
2333,-144.00
2334,-176.00
2335,-192.00
2336,-216.00
2337,-256.00
2338,-272.00
2339,-288.00
2340,-296.00
2341,-304.00
2342,-312.00
2343,-304.00
2344,-288.00
2345,-280.00
2346,-264.00
2347,-248.00
2348,-216.00
2349,-184.00
2350,-168.00
2351,-136.00
2352,-112.00
2353,-88.00
2354,-80.00
2355,-56.00
2356,-56.00
2357,-56.00
2358,-48.00
2359,-64.00
2360,-80.00
2361,-96.00
2362,-128.00
2363,-144.00
2364,-176.00
2365,-192.00
2366,-216.00
2367,-248.00
2368,-264.00
2369,-280.00
2370,-288.00
2371,-288.00
2372,-288.00
2373,-288.00
2374,-280.00
2375,-256.00
2376,-240.00
2377,-224.00
2378,-184.00
2379,-176.00
2380,-136.00
2381,-120.00
2382,-96.00
2383,-80.00
2384,-72.00
2385,-48.00
2386,-48.00
2387,-56.00
2388,-56.00
2389,-64.00
2390,-80.00
2391,-96.00
2392,-128.00
2393,-160.00
2394,-176.00
2395,-192.00
2396,-216.00
2397,-232.00
2398,-256.00
2399,-272.00
2400,-272.00
2401,-272.00
2402,-256.00
2403,-240.00
2404,-216.00
2405,-192.00
2406,-176.00
2407,-152.00
2408,-120.00
2409,-104.00
2410,-80.00
2411,-72.00
2412,-56.00
2413,-48.00
2414,-40.00
2415,-48.00
2416,-56.00
2417,-72.00
2418,-88.00
2419,-112.00
2420,-128.00
2421,-160.00
2422,-176.00
2423,-192.00
2424,-216.00
2425,-232.00
2426,-248.00
2427,-256.00
2428,-264.00
2429,-264.00
2430,-256.00
2431,-248.00
2432,-240.00
2433,-216.00
2434,-192.00
2435,-184.00
2436,-160.00
2437,-128.00
2438,-112.00
2439,-88.00
2440,-72.00
2441,-56.00
2442,-40.00
2443,-40.00
2444,-40.00
2445,-40.00
2446,-56.00
2447,-64.00
2448,-96.00
2449,-112.00
2450,-128.00
2451,-152.00
2452,-176.00
2453,-192.00
2454,-224.00
2455,-232.00
2456,-248.00
2457,-248.00
2458,-256.00
2459,-248.00
2460,-248.00
2461,-232.00
2462,-216.00
2463,-200.00
2464,-184.00
2465,-168.00
2466,-136.00
2467,-112.00
2468,-96.00
2469,-72.00
2470,-56.00
2471,-48.00
2472,-32.00
2473,-40.00
2474,-32.00
2475,-48.00
2476,-56.00
2477,-72.00
2478,-88.00
2479,-112.00
2480,-128.00
2481,-152.00
2482,-176.00
2483,-192.00
2484,-208.00
2485,-232.00
2486,-232.00
2487,-232.00
2488,-240.00
2489,-232.00
2490,-232.00
2491,-224.00
2492,-200.00
2493,-184.00
2494,-160.00
2495,-136.00
2496,-120.00
2497,-96.00
2498,-80.00
2499,-64.00
2500,-56.00
2501,-32.00
2502,-32.00
2503,-40.00
2504,-40.00
2505,-48.00
2506,-56.00
2507,-80.00
2508,-96.00
2509,-120.00
2510,-136.00
2511,-160.00
2512,-176.00
2513,-192.00
2514,-208.00
2515,-216.00
2516,-232.00
2517,-232.00
2518,-216.00
2519,-224.00
2520,-224.00
2521,-192.00
2522,-184.00
2523,-160.00
2524,-144.00
2525,-120.00
2526,-112.00
2527,-80.00
2528,-72.00
2529,-56.00
2530,-40.00
2531,-40.00
2532,-24.00
2533,-32.00
2534,-40.00
2535,-48.00
2536,-64.00
2537,-80.00
2538,-96.00
2539,-120.00
2540,-136.00
2541,-152.00
2542,-176.00
2543,-184.00
2544,-192.00
2545,-208.00
2546,-224.00
2547,-224.00
2548,-208.00
2549,-200.00
2550,-192.00
2551,-184.00
2552,-176.00
2553,-144.00
2554,-128.00
2555,-112.00
2556,-88.00
2557,-72.00
2558,-48.00
2559,-40.00
2560,-32.00
2561,-24.00
2562,-32.00
2563,-32.00
2564,-32.00
2565,-56.00
2566,-72.00
2567,-80.00
2568,-96.00
2569,-112.00
2570,-144.00
2571,-152.00
2572,-176.00
2573,-184.00
2574,-192.00
2575,-192.00
2576,-208.00
2577,-192.00
2578,-192.00
2579,-184.00
2580,-184.00
2581,-176.00
2582,-152.00
2583,-128.00
2584,-112.00
2585,-96.00
2586,-80.00
2587,-56.00
2588,-40.00
2589,-40.00
2590,-24.00
2591,-24.00
2592,-24.00
2593,-32.00
2594,-40.00
2595,-56.00
2596,-72.00
2597,-88.00
2598,-96.00
2599,-128.00
2600,-136.00
2601,-152.00
2602,-168.00
2603,-184.00
2604,-184.00
2605,-192.00
2606,-184.00
2607,-184.00
2608,-184.00
2609,-176.00
2610,-168.00
2611,-160.00
2612,-136.00
2613,-112.00
2614,-96.00
2615,-80.00
2616,-72.00
2617,-56.00
2618,-48.00
2619,-32.00
2620,-32.00
2621,-24.00
2622,-16.00
2623,-48.00
2624,-40.00
2625,-56.00
2626,-72.00
2627,-88.00
2628,-112.00
2629,-128.00
2630,-136.00
2631,-160.00
2632,-176.00
2633,-184.00
2634,-184.00
2635,-184.00
2636,-184.00
2637,-184.00
2638,-176.00
2639,-168.00
2640,-160.00
2641,-136.00
2642,-128.00
2643,-96.00
2644,-88.00
2645,-72.00
2646,-56.00
2647,-40.00
2648,-32.00
2649,-24.00
2650,-24.00
2651,-24.00
2652,-24.00
2653,-32.00
2654,-56.00
2655,-64.00
2656,-80.00
2657,-96.00
2658,-112.00
2659,-128.00
2660,-136.00
2661,-160.00
2662,-160.00
2663,-176.00
2664,-176.00
2665,-176.00
2666,-176.00
2667,-176.00
2668,-160.00
2669,-160.00
2670,-136.00
2671,-128.00
2672,-104.00
2673,-88.00
2674,-72.00
2675,-56.00
2676,-40.00
2677,-24.00
2678,-24.00
2679,-16.00
2680,-16.00
2681,-16.00
2682,-24.00
2683,-32.00
2684,-40.00
2685,-64.00
2686,-80.00
2687,-96.00
2688,-112.00
2689,-120.00
2690,416.00
2691,456.00
2692,472.00
2693,480.00
2694,496.00
2695,496.00
2696,488.00
2697,472.00
2698,456.00
2699,416.00
2700,376.00
2701,336.00
2702,296.00
2703,256.00
2704,208.00
2705,168.00
2706,136.00
2707,104.00
2708,96.00
2709,96.00
2710,88.00
2711,104.00
2712,120.00
2713,152.00
2714,176.00
2715,224.00
2716,256.00
2717,296.00
2718,344.00
2719,376.00
2720,416.00
2721,440.00
2722,456.00
2723,464.00
2724,472.00
2725,472.00
2726,464.00
2727,432.00
2728,416.00
2729,368.00
2730,344.00
2731,304.00
2732,264.00
2733,224.00
2734,176.00
2735,152.00
2736,120.00
2737,104.00
2738,88.00
2739,88.00
2740,96.00
2741,104.00
2742,128.00
2743,160.00
2744,192.00
2745,224.00
2746,272.00
2747,296.00
2748,344.00
2749,376.00
2750,392.00
2751,432.00
2752,440.00
2753,456.00
2754,456.00
2755,456.00
2756,432.00
2757,408.00
2758,384.00
2759,344.00
2760,312.00
2761,272.00
2762,232.00
2763,192.00
2764,168.00
2765,136.00
2766,96.00
2767,96.00
2768,88.00
2769,80.00
2770,96.00
2771,104.00
2772,128.00
2773,168.00
2774,192.00
2775,232.00
2776,272.00
2777,312.00
2778,344.00
2779,376.00
2780,400.00
2781,416.00
2782,432.00
2783,440.00
2784,432.00
2785,424.00
2786,400.00
2787,384.00
2788,352.00
2789,320.00
2790,280.00
2791,240.00
2792,216.00
2793,168.00
2794,144.00
2795,112.00
2796,96.00
2797,88.00
2798,88.00
2799,88.00
2800,96.00
2801,112.00
2802,144.00
2803,168.00
2804,192.00
2805,240.00
2806,272.00
2807,304.00
2808,344.00
2809,360.00
2810,392.00
2811,400.00
2812,408.00
2813,416.00
2814,416.00
2815,400.00
2816,376.00
2817,352.00
2818,312.00
2819,280.00
2820,256.00
2821,224.00
2822,176.00
2823,152.00
2824,120.00
2825,96.00
2826,88.00
2827,80.00
2828,80.00
2829,88.00
2830,96.00
2831,112.00
2832,144.00
2833,176.00
2834,208.00
2835,240.00
2836,272.00
2837,304.00
2838,344.00
2839,360.00
2840,376.00
2841,392.00
2842,392.00
2843,392.00
2844,384.00
2845,376.00
2846,352.00
2847,320.00
2848,288.00
2849,256.00
2850,224.00
2851,192.00
2852,160.00
2853,136.00
2854,104.00
2855,88.00
2856,88.00
2857,80.00
2858,80.00
2859,88.00
2860,104.00
2861,120.00
2862,152.00
2863,184.00
2864,216.00
2865,248.00
2866,280.00
2867,296.00
2868,336.00
2869,344.00
2870,360.00
2871,376.00
2872,376.00
2873,360.00
2874,360.00
2875,344.00
2876,320.00
2877,296.00
2878,272.00
2879,216.00
2880,200.00
2881,168.00
2882,144.00
2883,112.00
2884,96.00
2885,80.00
2886,80.00
2887,80.00
2888,80.00
2889,88.00
2890,104.00
2891,128.00
2892,160.00
2893,184.00
2894,216.00
2895,256.00
2896,272.00
2897,296.00
2898,328.00
2899,344.00
2900,352.00
2901,352.00
2902,360.00
2903,352.00
2904,336.00
2905,320.00
2906,296.00
2907,272.00
2908,240.00
2909,208.00
2910,176.00
2911,152.00
2912,120.00
2913,104.00
2914,80.00
2915,80.00
2916,80.00
2917,80.00
2918,80.00
2919,88.00
2920,96.00
2921,136.00
2922,160.00
2923,192.00
2924,216.00
2925,248.00
2926,272.00
2927,296.00
2928,320.00
2929,336.00
2930,336.00
2931,344.00
2932,336.00
2933,328.00
2934,312.00
2935,296.00
2936,272.00
2937,240.00
2938,216.00
2939,184.00
2940,160.00
2941,128.00
2942,104.00
2943,80.00
2944,80.00
2945,72.00
2946,64.00
2947,72.00
2948,80.00
2949,96.00
2950,112.00
2951,136.00
2952,160.00
2953,200.00
2954,224.00
2955,248.00
2956,272.00
2957,288.00
2958,304.00
2959,320.00
2960,312.00
2961,328.00
2962,312.00
2963,304.00
2964,280.00
2965,272.00
2966,248.00
2967,216.00
2968,192.00
2969,168.00
2970,136.00
2971,112.00
2972,96.00
2973,88.00
2974,64.00
2975,64.00
2976,72.00
2977,72.00
2978,88.00
2979,96.00
2980,120.00
2981,136.00
2982,168.00
2983,200.00
2984,224.00
2985,240.00
2986,272.00
2987,288.00
2988,296.00
2989,304.00
2990,312.00
2991,312.00
2992,304.00
2993,288.00
2994,272.00
2995,248.00
2996,224.00
2997,192.00
2998,176.00
2999,144.00
3000,88.00
3001,72.00
3002,64.00
3003,56.00
3004,64.00
3005,72.00
3006,80.00
3007,96.00
3008,120.00
3009,152.00
3010,176.00
3011,200.00
3012,224.00
3013,240.00
3014,272.00
3015,280.00
3016,280.00
3017,296.00
3018,288.00
3019,280.00
3020,280.00
3021,272.00
3022,256.00
3023,216.00
3024,200.00
3025,176.00
3026,152.00
3027,128.00
3028,104.00
3029,88.00
3030,72.00
3031,64.00
3032,56.00
3033,56.00
3034,64.00
3035,80.00
3036,88.00
3037,104.00
3038,120.00
3039,152.00
3040,176.00
3041,200.00
3042,224.00
3043,240.00
3044,256.00
3045,272.00
3046,272.00
3047,280.00
3048,280.00
3049,272.00
3050,256.00
3051,240.00
3052,224.00
3053,192.00
3054,176.00
3055,160.00
3056,128.00
3057,112.00
3058,88.00
3059,80.00
3060,72.00
3061,56.00
3062,48.00
3063,56.00
3064,72.00
3065,80.00
3066,88.00
3067,112.00
3068,136.00
3069,152.00
3070,176.00
3071,192.00
3072,224.00
3073,240.00
3074,256.00
3075,272.00
3076,272.00
3077,272.00
3078,272.00
3079,248.00
3080,240.00
3081,224.00
3082,208.00
3083,176.00
3084,160.00
3085,136.00
3086,112.00
3087,96.00
3088,80.00
3089,64.00
3090,56.00
3091,56.00
3092,40.00
3093,56.00
3094,64.00
3095,88.00
3096,96.00
3097,104.00
3098,136.00
3099,160.00
3100,176.00
3101,192.00
3102,216.00
3103,224.00
3104,240.00
3105,264.00
3106,256.00
3107,264.00
3108,240.00
3109,240.00
3110,224.00
3111,208.00
3112,176.00
3113,168.00
3114,128.00
3115,128.00
3116,104.00
3117,88.00
3118,64.00
3119,48.00
3120,56.00
3121,56.00
3122,40.00
3123,56.00
3124,72.00
3125,80.00
3126,88.00
3127,120.00
3128,136.00
3129,160.00
3130,176.00
3131,192.00
3132,216.00
3133,232.00
3134,240.00
3135,240.00
3136,240.00
3137,240.00
3138,216.00
3139,224.00
3140,208.00
3141,192.00
3142,168.00
3143,144.00
3144,128.00
3145,104.00
3146,80.00
3147,72.00
3148,48.00
3149,56.00
3150,48.00
3151,48.00
3152,48.00
3153,48.00
3154,72.00
3155,88.00
3156,96.00
3157,120.00
3158,136.00
3159,160.00
3160,176.00
3161,200.00
3162,216.00
3163,216.00
3164,216.00
3165,232.00
3166,224.00
3167,232.00
3168,216.00
3169,208.00
3170,192.00
3171,168.00
3172,160.00
3173,128.00
3174,112.00
3175,88.00
3176,88.00
3177,64.00
3178,56.00
3179,48.00
3180,48.00
3181,48.00
3182,40.00
3183,64.00
3184,80.00
3185,80.00
3186,104.00
3187,120.00
3188,136.00
3189,160.00
3190,176.00
3191,192.00
3192,208.00
3193,216.00
3194,224.00
3195,224.00
3196,216.00
3197,216.00
3198,200.00
3199,192.00
3200,168.00
3201,160.00
3202,136.00
3203,112.00
3204,96.00
3205,80.00
3206,64.00
3207,56.00
3208,48.00
3209,48.00
3210,40.00
3211,48.00
3212,56.00
3213,64.00
3214,80.00
3215,88.00
3216,112.00
3217,136.00
3218,136.00
3219,160.00
3220,176.00
3221,192.00
3222,192.00
3223,208.00
3224,208.00
3225,216.00
3226,208.00
3227,200.00
3228,192.00
3229,176.00
3230,152.00
3231,136.00
3232,120.00
3233,104.00
3234,88.00
3235,64.00
3236,56.00
3237,56.00
3238,48.00
3239,40.00
3240,48.00
3241,40.00
3242,56.00
3243,64.00
3244,80.00
3245,88.00
3246,112.00
3247,120.00
3248,144.00
3249,168.00
3250,176.00
3251,192.00
3252,192.00
3253,200.00
3254,192.00
3255,176.00
3256,200.00
3257,184.00
3258,176.00
3259,160.00
3260,128.00
3261,120.00
3262,88.00
3263,88.00
3264,80.00
3265,64.00
3266,48.00
3267,48.00
3268,40.00
3269,40.00
3270,40.00
3271,48.00
3272,64.00
3273,64.00
3274,80.00
3275,96.00
3276,104.00
3277,128.00
3278,144.00
3279,168.00
3280,168.00
3281,184.00
3282,192.00
3283,192.00
3284,192.00
3285,192.00
3286,176.00
3287,176.00
3288,160.00
3289,144.00
3290,120.00
3291,96.00
3292,88.00
3293,80.00
3294,72.00
3295,48.00
3296,40.00
3297,32.00
3298,40.00
3299,40.00
3300,48.00
3301,48.00
3302,48.00
3303,64.00
3304,88.00
3305,88.00
3306,112.00
3307,128.00
3308,144.00
3309,160.00
3310,168.00
3311,176.00
3312,176.00
3313,176.00
3314,176.00
3315,-480.00
3316,-464.00
3317,-440.00
3318,-400.00
3319,-360.00
3320,-320.00
3321,-280.00
3322,-248.00
3323,-192.00
3324,-160.00
3325,-136.00
3326,-112.00
3327,-96.00
3328,-96.00
3329,-104.00
3330,-112.00
3331,-136.00
3332,-160.00
3333,-200.00
3334,-240.00
3335,-280.00
3336,-320.00
3337,-368.00
3338,-392.00
3339,-432.00
3340,-448.00
3341,-464.00
3342,-472.00
3343,-480.00
3344,-464.00
3345,-464.00
3346,-432.00
3347,-408.00
3348,-368.00
3349,-328.00
3350,-288.00
3351,-248.00
3352,-208.00
3353,-176.00
3354,-136.00
3355,-112.00
3356,-96.00
3357,-96.00
3358,-96.00
3359,-104.00
3360,-120.00
3361,-144.00
3362,-176.00
3363,-208.00
3364,-248.00
3365,-280.00
3366,-320.00
3367,-360.00
3368,-392.00
3369,-416.00
3370,-432.00
3371,-456.00
3372,-464.00
3373,-456.00
3374,-440.00
3375,-424.00
3376,-392.00
3377,-368.00
3378,-328.00
3379,-296.00
3380,-248.00
3381,-216.00
3382,-184.00
3383,-152.00
3384,-120.00
3385,-96.00
3386,-96.00
3387,-88.00
3388,-96.00
3389,-104.00
3390,-120.00
3391,-144.00
3392,-176.00
3393,-208.00
3394,-248.00
3395,-288.00
3396,-320.00
3397,-360.00
3398,-384.00
3399,-408.00
3400,-424.00
3401,-432.00
3402,-432.00
3403,-424.00
3404,-416.00
3405,-392.00
3406,-368.00
3407,-336.00
3408,-304.00
3409,-264.00
3410,-232.00
3411,-184.00
3412,-160.00
3413,-128.00
3414,-104.00
3415,-96.00
3416,-88.00
3417,-88.00
3418,-96.00
3419,-112.00
3420,-136.00
3421,-160.00
3422,-184.00
3423,-216.00
3424,-256.00
3425,-288.00
3426,-320.00
3427,-352.00
3428,-368.00
3429,-392.00
3430,-408.00
3431,-408.00
3432,-408.00
3433,-408.00
3434,-384.00
3435,-368.00
3436,-336.00
3437,-296.00
3438,-272.00
3439,-240.00
3440,-200.00
3441,-176.00
3442,-136.00
3443,-112.00
3444,-96.00
3445,-80.00
3446,-80.00
3447,-88.00
3448,-96.00
3449,-96.00
3450,-128.00
3451,-160.00
3452,-184.00
3453,-232.00
3454,-256.00
3455,-288.00
3456,-320.00
3457,-344.00
3458,-368.00
3459,-384.00
3460,-392.00
3461,-392.00
3462,-392.00
3463,-376.00
3464,-360.00
3465,-336.00
3466,-304.00
3467,-280.00
3468,-240.00
3469,-208.00
3470,-176.00
3471,-144.00
3472,-120.00
3473,-96.00
3474,-80.00
3475,-72.00
3476,-80.00
3477,-80.00
3478,-96.00
3479,-104.00
3480,-128.00
3481,-160.00
3482,-184.00
3483,-224.00
3484,-256.00
3485,-288.00
3486,-312.00
3487,-336.00
3488,-368.00
3489,-368.00
3490,-368.00
3491,-368.00
3492,-368.00
3493,-352.00
3494,-328.00
3495,-304.00
3496,-280.00
3497,-248.00
3498,-216.00
3499,-184.00
3500,-152.00
3501,-120.00
3502,-104.00
3503,-80.00
3504,-80.00
3505,-72.00
3506,-72.00
3507,-80.00
3508,-96.00
3509,-112.00
3510,-136.00
3511,-176.00
3512,-192.00
3513,-232.00
3514,-264.00
3515,-288.00
3516,-304.00
3517,-328.00
3518,-344.00
3519,-352.00
3520,-352.00
3521,-352.00
3522,-344.00
3523,-328.00
3524,-304.00
3525,-280.00
3526,-256.00
3527,-224.00
3528,-184.00
3529,-160.00
3530,-128.00
3531,-104.00
3532,-88.00
3533,-72.00
3534,-72.00
3535,-64.00
3536,-72.00
3537,-80.00
3538,-96.00
3539,-112.00
3540,-144.00
3541,-176.00
3542,-192.00
3543,-224.00
3544,-264.00
3545,-288.00
3546,-304.00
3547,-320.00
3548,-336.00
3549,-336.00
3550,-336.00
3551,-328.00
3552,-320.00
3553,-304.00
3554,-280.00
3555,-256.00
3556,-224.00
3557,-192.00
3558,-176.00
3559,-136.00
3560,-112.00
3561,-96.00
3562,-80.00
3563,-64.00
3564,-56.00
3565,-64.00
3566,-72.00
3567,-80.00
3568,-104.00
3569,-128.00
3570,-152.00
3571,-176.00
3572,-200.00
3573,-232.00
3574,-256.00
3575,-280.00
3576,-288.00
3577,-304.00
3578,-320.00
3579,-320.00
3580,-312.00
3581,-312.00
3582,-288.00
3583,-280.00
3584,-264.00
3585,-232.00
3586,-192.00
3587,-176.00
3588,-152.00
3589,-120.00
3590,-96.00
3591,-80.00
3592,-72.00
3593,-56.00
3594,-56.00
3595,-56.00
3596,-72.00
3597,-88.00
3598,-96.00
3599,-128.00
3600,-200.00
3601,-232.00
3602,-256.00
3603,-280.00
3604,-288.00
3605,-296.00
3606,-304.00
3607,-296.00
3608,-304.00
3609,-288.00
3610,-272.00
3611,-256.00
3612,-232.00
3613,-208.00
3614,-184.00
3615,-152.00
3616,-128.00
3617,-104.00
3618,-80.00
3619,-72.00
3620,-56.00
3621,-56.00
3622,-56.00
3623,-56.00
3624,-72.00
3625,-88.00
3626,-112.00
3627,-128.00
3628,-152.00
3629,-184.00
3630,-200.00
3631,-232.00
3632,-256.00
3633,-272.00
3634,-280.00
3635,-280.00
3636,-288.00
3637,-280.00
3638,-280.00
3639,-280.00
3640,-248.00
3641,-232.00
3642,-208.00
3643,-184.00
3644,-152.00
3645,-128.00
3646,-112.00
3647,-96.00
3648,-72.00
3649,-56.00
3650,-56.00
3651,-48.00
3652,-48.00
3653,-64.00
3654,-72.00
3655,-88.00
3656,-104.00
3657,-136.00
3658,-160.00
3659,-184.00
3660,-200.00
3661,-224.00
3662,-248.00
3663,-264.00
3664,-272.00
3665,-280.00
3666,-280.00
3667,-280.00
3668,-264.00
3669,-248.00
3670,-232.00
3671,-208.00
3672,-184.00
3673,-160.00
3674,-136.00
3675,-112.00
3676,-96.00
3677,-80.00
3678,-64.00
3679,-48.00
3680,-40.00
3681,-48.00
3682,-56.00
3683,-56.00
3684,-80.00
3685,-96.00
3686,-112.00
3687,-136.00
3688,-160.00
3689,-184.00
3690,-200.00
3691,-224.00
3692,-248.00
3693,-256.00
3694,-264.00
3695,-264.00
3696,-256.00
3697,-256.00
3698,-256.00
3699,-232.00
3700,-216.00
3701,-184.00
3702,-168.00
3703,-144.00
3704,-128.00
3705,-96.00
3706,-80.00
3707,-64.00
3708,-48.00
3709,-40.00
3710,-40.00
3711,-40.00
3712,-56.00
3713,-56.00
3714,-72.00
3715,-96.00
3716,-120.00
3717,-144.00
3718,-168.00
3719,-184.00
3720,-200.00
3721,-216.00
3722,-232.00
3723,-248.00
3724,-248.00
3725,-248.00
3726,-240.00
3727,-248.00
3728,-224.00
3729,-216.00
3730,-184.00
3731,-176.00
3732,-152.00
3733,-128.00
3734,-112.00
3735,-88.00
3736,-72.00
3737,-56.00
3738,-40.00
3739,-40.00
3740,-40.00
3741,-40.00
3742,-56.00
3743,-64.00
3744,-88.00
3745,-96.00
3746,-128.00
3747,-144.00
3748,-160.00
3749,-184.00
3750,-200.00
3751,-216.00
3752,-224.00
3753,-232.00
3754,-240.00
3755,-240.00
3756,-232.00
3757,-224.00
3758,-208.00
3759,-184.00
3760,-176.00
3761,-160.00
3762,-128.00
3763,-112.00
3764,-88.00
3765,-72.00
3766,-56.00
3767,-48.00
3768,-40.00
3769,-32.00
3770,-40.00
3771,-40.00
3772,-56.00
3773,-72.00
3774,-88.00
3775,-112.00
3776,-120.00
3777,-136.00
3778,-168.00
3779,-184.00
3780,-192.00
3781,-208.00
3782,-216.00
3783,-232.00
3784,-232.00
3785,-216.00
3786,-216.00
3787,-200.00
3788,-184.00
3789,-176.00
3790,-160.00
3791,-136.00
3792,-120.00
3793,-96.00
3794,-80.00
3795,-64.00
3796,-48.00
3797,-40.00
3798,-32.00
3799,-32.00
3800,-32.00
3801,-40.00
3802,-56.00
3803,-64.00
3804,-88.00
3805,-112.00
3806,-128.00
3807,-144.00
3808,-160.00
3809,-184.00
3810,-192.00
3811,-200.00
3812,-208.00
3813,-216.00
3814,-216.00
3815,-216.00
3816,-200.00
3817,-184.00
3818,-184.00
3819,-152.00
3820,-144.00
3821,-128.00
3822,-112.00
3823,-80.00
3824,-72.00
3825,-56.00
3826,-40.00
3827,-32.00
3828,-24.00
3829,-32.00
3830,-40.00
3831,-40.00
3832,-56.00
3833,-72.00
3834,-88.00
3835,-112.00
3836,-128.00
3837,-144.00
3838,-160.00
3839,-176.00
3840,-184.00
3841,-192.00
3842,-200.00
3843,-200.00
3844,-200.00
3845,-192.00
3846,-184.00
3847,-176.00
3848,-160.00
3849,-144.00
3850,-128.00
3851,-112.00
3852,-88.00
3853,-64.00
3854,-48.00
3855,-40.00
3856,-40.00
3857,-24.00
3858,-24.00
3859,-40.00
3860,-32.00
3861,-40.00
3862,-56.00
3863,-72.00
3864,-96.00
3865,-112.00
3866,-128.00
3867,-144.00
3868,-160.00
3869,-176.00
3870,-184.00
3871,-184.00
3872,-184.00
3873,-184.00
3874,-184.00
3875,-184.00
3876,-176.00
3877,-160.00
3878,-144.00
3879,-128.00
3880,-112.00
3881,-96.00
3882,-80.00
3883,-56.00
3884,-40.00
3885,-40.00
3886,-32.00
3887,-24.00
3888,-24.00
3889,-32.00
3890,-32.00
3891,-48.00
3892,-64.00
3893,-80.00
3894,-96.00
3895,-112.00
3896,-128.00
3897,-144.00
3898,-160.00
3899,-176.00
3900,-176.00
3901,-184.00
3902,-184.00
3903,-184.00
3904,-176.00
3905,-176.00
3906,-160.00
3907,-144.00
3908,-128.00
3909,-112.00
3910,-104.00
3911,-80.00
3912,-64.00
3913,-56.00
3914,-40.00
3915,-24.00
3916,-24.00
3917,-24.00
3918,-24.00
3919,-32.00
3920,-40.00
3921,-56.00
3922,-72.00
3923,-80.00
3924,-96.00
3925,-112.00
3926,-136.00
3927,-144.00
3928,-152.00
3929,-168.00
3930,-176.00
3931,-176.00
3932,-176.00
3933,-168.00
3934,-168.00
3935,-152.00
3936,-144.00
3937,-128.00
3938,-120.00
3939,-104.00
3940,-80.00
3941,-72.00
3942,-56.00
3943,-40.00
3944,-40.00
3945,-24.00
3946,-16.00
3947,-16.00
3948,-16.00
3949,-48.00
3950,-40.00
3951,-56.00
3952,-72.00
3953,272.00
3954,296.00
3955,352.00
3956,392.00
3957,424.00
3958,456.00
3959,472.00
3960,488.00
3961,488.00
3962,496.00
3963,480.00
3964,456.00
3965,440.00
3966,392.00
3967,360.00
3968,312.00
3969,280.00
3970,240.00
3971,192.00
3972,160.00
3973,128.00
3974,104.00
3975,96.00
3976,88.00
3977,96.00
3978,112.00
3979,128.00
3980,160.00
3981,192.00
3982,216.00
3983,272.00
3984,312.00
3985,344.00
3986,384.00
3987,424.00
3988,448.00
3989,464.00
3990,472.00
3991,472.00
3992,464.00
3993,456.00
3994,432.00
3995,400.00
3996,360.00
3997,328.00
3998,288.00
3999,248.00
4000,208.00
4001,168.00
4002,136.00
4003,96.00
4004,96.00
4005,88.00
4006,88.00
4007,96.00
4008,96.00
4009,136.00
4010,168.00
4011,200.00
4012,240.00
4013,280.00
4014,312.00
4015,336.00
4016,384.00
4017,416.00
4018,440.00
4019,448.00
4020,456.00
4021,456.00
4022,448.00
4023,424.00
4024,400.00
4025,360.00
4026,336.00
4027,296.00
4028,264.00
4029,224.00
4030,184.00
4031,152.00
4032,120.00
4033,104.00
4034,88.00
4035,80.00
4036,88.00
4037,96.00
4038,96.00
4039,136.00
4040,176.00
4041,208.00
4042,240.00
4043,288.00
4044,320.00
4045,344.00
4046,368.00
4047,408.00
4048,416.00
4049,432.00
4050,432.00
4051,432.00
4052,416.00
4053,392.00
4054,360.00
4055,336.00
4056,296.00
4057,264.00
4058,224.00
4059,192.00
4060,168.00
4061,128.00
4062,104.00
4063,88.00
4064,88.00
4065,80.00
4066,88.00
4067,96.00
4068,120.00
4069,152.00
4070,176.00
4071,216.00
4072,248.00
4073,288.00
4074,320.00
4075,344.00
4076,360.00
4077,392.00
4078,400.00
4079,416.00
4080,408.00
4081,400.00
4082,384.00
4083,360.00
4084,336.00
4085,296.00
4086,272.00
4087,240.00
4088,200.00
4089,168.00
4090,136.00
4091,96.00
4092,88.00
4093,88.00
4094,80.00
4095,88.00
4096,88.00
4097,104.00
4098,128.00
4099,160.00
4100,184.00
4101,224.00
4102,256.00
4103,280.00
4104,320.00
4105,336.00
4106,360.00
4107,368.00
4108,392.00
4109,392.00
4110,384.00
4111,376.00
4112,360.00
4113,344.00
4114,312.00
4115,272.00
4116,240.00
4117,208.00
4118,176.00
4119,144.00
4120,128.00
4121,96.00
4122,88.00
4123,80.00
4124,80.00
4125,80.00
4126,88.00
4127,112.00
4128,136.00
4129,160.00
4130,192.00
4131,224.00
4132,264.00
4133,288.00
4134,312.00
4135,336.00
4136,360.00
4137,360.00
4138,376.00
4139,360.00
4140,360.00
4141,352.00
4142,344.00
4143,312.00
4144,280.00
4145,248.00
4146,216.00
4147,176.00
4148,160.00
4149,128.00
4150,104.00
4151,88.00
4152,80.00
4153,72.00
4154,80.00
4155,80.00
4156,88.00
4157,104.00
4158,136.00
4159,160.00
4160,192.00
4161,216.00
4162,248.00
4163,272.00
4164,312.00
4165,336.00
4166,352.00
4167,352.00
4168,360.00
4169,352.00
4170,344.00
4171,328.00
4172,312.00
4173,280.00
4174,248.00
4175,216.00
4176,192.00
4177,168.00
4178,136.00
4179,104.00
4180,96.00
4181,80.00
4182,80.00
4183,80.00
4184,72.00
4185,80.00
4186,96.00
4187,120.00
4188,144.00
4189,168.00
4190,200.00
4191,232.00
4192,256.00
4193,280.00
4194,296.00
4195,312.00
4196,336.00
4197,344.00
4198,336.00
4199,328.00
4200,288.00
4201,264.00
4202,224.00
4203,184.00
4204,168.00
4205,144.00
4206,120.00
4207,96.00
4208,88.00
4209,72.00
4210,64.00
4211,72.00
4212,64.00
4213,88.00
4214,96.00
4215,120.00
4216,152.00
4217,176.00
4218,200.00
4219,224.00
4220,256.00
4221,280.00
4222,296.00
4223,312.00
4224,328.00
4225,328.00
4226,320.00
4227,312.00
4228,296.00
4229,280.00
4230,256.00
4231,240.00
4232,200.00
4233,176.00
4234,152.00
4235,120.00
4236,104.00
4237,88.00
4238,72.00
4239,64.00
4240,64.00
4241,64.00
4242,80.00
4243,88.00
4244,104.00
4245,120.00
4246,152.00
4247,176.00
4248,192.00
4249,232.00
4250,264.00
4251,280.00
4252,296.00
4253,304.00
4254,304.00
4255,304.00
4256,296.00
4257,296.00
4258,280.00
4259,256.00
4260,240.00
4261,208.00
4262,176.00
4263,160.00
4264,136.00
4265,96.00
4266,88.00
4267,80.00
4268,72.00
4269,64.00
4270,56.00
4271,64.00
4272,80.00
4273,88.00
4274,96.00
4275,136.00
4276,160.00
4277,176.00
4278,208.00
4279,232.00
4280,248.00
4281,272.00
4282,280.00
4283,280.00
4284,288.00
4285,280.00
4286,280.00
4287,272.00
4288,248.00
4289,240.00
4290,216.00
4291,192.00
4292,168.00
4293,144.00
4294,120.00
4295,96.00
4296,80.00
4297,72.00
4298,56.00
4299,56.00
4300,64.00
4301,64.00
4302,80.00
4303,88.00
4304,112.00
4305,136.00
4306,168.00
4307,176.00
4308,208.00
4309,216.00
4310,248.00
4311,272.00
4312,272.00
4313,280.00
4314,272.00
4315,272.00
4316,272.00
4317,256.00
4318,240.00
4319,216.00
4320,192.00
4321,160.00
4322,152.00
4323,128.00
4324,96.00
4325,88.00
4326,64.00
4327,56.00
4328,56.00
4329,56.00
4330,48.00
4331,64.00
4332,80.00
4333,96.00
4334,112.00
4335,128.00
4336,168.00
4337,184.00
4338,208.00
4339,224.00
4340,240.00
4341,264.00
4342,264.00
4343,272.00
4344,272.00
4345,256.00
4346,248.00
4347,232.00
4348,216.00
4349,192.00
4350,160.00
4351,160.00
4352,128.00
4353,104.00
4354,88.00
4355,80.00
4356,64.00
4357,56.00
4358,48.00
4359,48.00
4360,56.00
4361,72.00
4362,88.00
4363,96.00
4364,120.00
4365,128.00
4366,176.00
4367,184.00
4368,208.00
4369,224.00
4370,240.00
4371,256.00
4372,248.00
4373,256.00
4374,248.00
4375,240.00
4376,216.00
4377,208.00
4378,200.00
4379,176.00
4380,152.00
4381,136.00
4382,96.00
4383,88.00
4384,72.00
4385,72.00
4386,56.00
4387,56.00
4388,56.00
4389,48.00
4390,56.00
4391,64.00
4392,88.00
4393,104.00
4394,128.00
4395,144.00
4396,168.00
4397,176.00
4398,184.00
4399,224.00
4400,224.00
4401,240.00
4402,240.00
4403,240.00
4404,240.00
4405,216.00
4406,216.00
4407,192.00
4408,176.00
4409,160.00
4410,136.00
4411,120.00
4412,96.00
4413,88.00
4414,72.00
4415,56.00
4416,48.00
4417,48.00
4418,56.00
4419,56.00
4420,56.00
4421,80.00
4422,88.00
4423,104.00
4424,128.00
4425,136.00
4426,168.00
4427,184.00
4428,176.00
4429,216.00
4430,224.00
4431,232.00
4432,224.00
4433,232.00
4434,232.00
4435,216.00
4436,200.00
4437,176.00
4438,168.00
4439,136.00
4440,128.00
4441,96.00
4442,88.00
4443,80.00
4444,64.00
4445,48.00
4446,48.00
4447,40.00
4448,48.00
4449,56.00
4450,64.00
4451,80.00
4452,88.00
4453,96.00
4454,120.00
4455,152.00
4456,168.00
4457,176.00
4458,200.00
4459,216.00
4460,216.00
4461,216.00
4462,216.00
4463,216.00
4464,208.00
4465,200.00
4466,176.00
4467,176.00
4468,144.00
4469,120.00
4470,112.00
4471,88.00
4472,80.00
4473,64.00
4474,48.00
4475,48.00
4476,48.00
4477,48.00
4478,48.00
4479,48.00
4480,64.00
4481,80.00
4482,96.00
4483,96.00
4484,128.00
4485,152.00
4486,168.00
4487,176.00
4488,192.00
4489,200.00
4490,208.00
4491,216.00
4492,216.00
4493,200.00
4494,192.00
4495,176.00
4496,160.00
4497,152.00
4498,136.00
4499,112.00
4500,96.00
4501,88.00
4502,64.00
4503,48.00
4504,40.00
4505,48.00
4506,40.00
4507,40.00
4508,48.00
4509,56.00
4510,64.00
4511,88.00
4512,104.00
4513,112.00
4514,128.00
4515,152.00
4516,168.00
4517,176.00
4518,184.00
4519,184.00
4520,176.00
4521,200.00
4522,192.00
4523,192.00
4524,176.00
4525,168.00
4526,152.00
4527,144.00
4528,112.00
4529,96.00
4530,88.00
4531,72.00
4532,56.00
4533,48.00
4534,40.00
4535,40.00
4536,40.00
4537,40.00
4538,48.00
4539,64.00
4540,64.00
4541,88.00
4542,96.00
4543,112.00
4544,136.00
4545,152.00
4546,160.00
4547,168.00
4548,176.00
4549,184.00
4550,192.00
4551,192.00
4552,176.00
4553,176.00
4554,168.00
4555,168.00
4556,128.00
4557,120.00
4558,104.00
4559,88.00
4560,80.00
4561,56.00
4562,48.00
4563,48.00
4564,40.00
4565,32.00
4566,32.00
4567,40.00
4568,48.00
4569,64.00
4570,80.00
4571,88.00
4572,104.00
4573,104.00
4574,136.00
4575,144.00
4576,160.00
4577,160.00
4578,-480.00
4579,-488.00
4580,-496.00
4581,-488.00
4582,-472.00
4583,-456.00
4584,-424.00
4585,-392.00
4586,-344.00
4587,-304.00
4588,-264.00
4589,-224.00
4590,-184.00
4591,-152.00
4592,-128.00
4593,-112.00
4594,-104.00
4595,-96.00
4596,-96.00
4597,-128.00
4598,-144.00
4599,-184.00
4600,-208.00
4601,-256.00
4602,-288.00
4603,-328.00
4604,-368.00
4605,-408.00
4606,-432.00
4607,-464.00
4608,-464.00
4609,-472.00
4610,-464.00
4611,-464.00
4612,-440.00
4613,-424.00
4614,-392.00
4615,-352.00
4616,-304.00
4617,-280.00
4618,-232.00
4619,-192.00
4620,-160.00
4621,-128.00
4622,-104.00
4623,-96.00
4624,-80.00
4625,-104.00
4626,-104.00
4627,-128.00
4628,-152.00
4629,-184.00
4630,-224.00
4631,-264.00
4632,-288.00
4633,-328.00
4634,-368.00
4635,-400.00
4636,-424.00
4637,-440.00
4638,-448.00
4639,-456.00
4640,-456.00
4641,-432.00
4642,-416.00
4643,-384.00
4644,-360.00
4645,-312.00
4646,-280.00
4647,-256.00
4648,-200.00
4649,-168.00
4650,-136.00
4651,-112.00
4652,-104.00
4653,-88.00
4654,-96.00
4655,-96.00
4656,-112.00
4657,-128.00
4658,-160.00
4659,-184.00
4660,-224.00
4661,-264.00
4662,-296.00
4663,-336.00
4664,-368.00
4665,-392.00
4666,-408.00
4667,-424.00
4668,-424.00
4669,-432.00
4670,-424.00
4671,-408.00
4672,-384.00
4673,-360.00
4674,-320.00
4675,-280.00
4676,-248.00
4677,-216.00
4678,-184.00
4679,-144.00
4680,-120.00
4681,-104.00
4682,-88.00
4683,-80.00
4684,-88.00
4685,-88.00
4686,-112.00
4687,-136.00
4688,-160.00
4689,-192.00
4690,-232.00
4691,-272.00
4692,-296.00
4693,-328.00
4694,-360.00
4695,-376.00
4696,-400.00
4697,-408.00
4698,-408.00
4699,-408.00
4700,-392.00
4701,-376.00
4702,-352.00
4703,-320.00
4704,-288.00
4705,-256.00
4706,-224.00
4707,-184.00
4708,-152.00
4709,-128.00
4710,-112.00
4711,-88.00
4712,-80.00
4713,-80.00
4714,-80.00
4715,-96.00
4716,-112.00
4717,-136.00
4718,-176.00
4719,-200.00
4720,-232.00
4721,-272.00
4722,-296.00
4723,-328.00
4724,-360.00
4725,-368.00
4726,-384.00
4727,-384.00
4728,-384.00
4729,-376.00
4730,-368.00
4731,-352.00
4732,-320.00
4733,-288.00
4734,-256.00
4735,-232.00
4736,-192.00
4737,-160.00
4738,-128.00
4739,-112.00
4740,-96.00
4741,-80.00
4742,-72.00
4743,-72.00
4744,-88.00
4745,-96.00
4746,-112.00
4747,-144.00
4748,-176.00
4749,-200.00
4750,-232.00
4751,-280.00
4752,-304.00
4753,-328.00
4754,-352.00
4755,-368.00
4756,-368.00
4757,-368.00
4758,-368.00
4759,-360.00
4760,-352.00
4761,-320.00
4762,-296.00
4763,-280.00
4764,-232.00
4765,-200.00
4766,-168.00
4767,-136.00
4768,-112.00
4769,-96.00
4770,-80.00
4771,-72.00
4772,-72.00
4773,-64.00
4774,-80.00
4775,-104.00
4776,-128.00
4777,-152.00
4778,-184.00
4779,-208.00
4780,-240.00
4781,-272.00
4782,-296.00
4783,-320.00
4784,-336.00
4785,-344.00
4786,-352.00
4787,-352.00
4788,-352.00
4789,-336.00
4790,-320.00
4791,-288.00
4792,-272.00
4793,-248.00
4794,-200.00
4795,-184.00
4796,-160.00
4797,-120.00
4798,-96.00
4799,-80.00
4800,-64.00
4801,-72.00
4802,-88.00
4803,-96.00
4804,-128.00
4805,-144.00
4806,-184.00
4807,-216.00
4808,-248.00
4809,-272.00
4810,-280.00
4811,-304.00
4812,-320.00
4813,-336.00
4814,-328.00
4815,-328.00
4816,-328.00
4817,-312.00
4818,-288.00
4819,-272.00
4820,-240.00
4821,-224.00
4822,-184.00
4823,-152.00
4824,-128.00
4825,-104.00
4826,-88.00
4827,-72.00
4828,-64.00
4829,-56.00
4830,-56.00
4831,-72.00
4832,-88.00
4833,-112.00
4834,-128.00
4835,-160.00
4836,-184.00
4837,-216.00
4838,-240.00
4839,-264.00
4840,-280.00
4841,-304.00
4842,-312.00
4843,-312.00
4844,-312.00
4845,-312.00
4846,-304.00
4847,-280.00
4848,-272.00
4849,-248.00
4850,-216.00
4851,-184.00
4852,-160.00
4853,-136.00
4854,-112.00
4855,-88.00
4856,-72.00
4857,-56.00
4858,-56.00
4859,-56.00
4860,-56.00
4861,-72.00
4862,-88.00
4863,-112.00
4864,-128.00
4865,-160.00
4866,-184.00
4867,-216.00
4868,-240.00
4869,-256.00
4870,-280.00
4871,-288.00
4872,-296.00
4873,-296.00
4874,-304.00
4875,-288.00
4876,-280.00
4877,-264.00
4878,-256.00
4879,-216.00
4880,-192.00
4881,-176.00
4882,-144.00
4883,-112.00
4884,-96.00
4885,-80.00
4886,-72.00
4887,-56.00
4888,-48.00
4889,-48.00
4890,-56.00
4891,-80.00
4892,-96.00
4893,-112.00
4894,-136.00
4895,-160.00
4896,-184.00
4897,-208.00
4898,-232.00
4899,-256.00
4900,-272.00
4901,-280.00
4902,-280.00
4903,-280.00
4904,-280.00
4905,-280.00
4906,-264.00
4907,-248.00
4908,-224.00
4909,-192.00
4910,-176.00
4911,-152.00
4912,-136.00
4913,-104.00
4914,-80.00
4915,-64.00
4916,-56.00
4917,-56.00
4918,-48.00
4919,-56.00
4920,-56.00
4921,-80.00
4922,-104.00
4923,-112.00
4924,-144.00
4925,-168.00
4926,-184.00
4927,-208.00
4928,-232.00
4929,-248.00
4930,-256.00
4931,-272.00
4932,-272.00
4933,-280.00
4934,-272.00
4935,-256.00
4936,-240.00
4937,-216.00
4938,-192.00
4939,-176.00
4940,-160.00
4941,-128.00
4942,-112.00
4943,-88.00
4944,-64.00
4945,-56.00
4946,-40.00
4947,-40.00
4948,-48.00
4949,-48.00
4950,-64.00
4951,-80.00
4952,-104.00
4953,-120.00
4954,-144.00
4955,-168.00
4956,-184.00
4957,-216.00
4958,-224.00
4959,-240.00
4960,-256.00
4961,-256.00
4962,-256.00
4963,-256.00
4964,-248.00
4965,-248.00
4966,-216.00
4967,-200.00
4968,-184.00
4969,-152.00
4970,-136.00
4971,-112.00
4972,-88.00
4973,-72.00
4974,-56.00
4975,-40.00
4976,-40.00
4977,-40.00
4978,-40.00
4979,-56.00
4980,-72.00
4981,-80.00
4982,-96.00
4983,-128.00
4984,-144.00
4985,-168.00
4986,-184.00
4987,-200.00
4988,-232.00
4989,-232.00
4990,-256.00
4991,-248.00
4992,-256.00
4993,-248.00
4994,-232.00
4995,-216.00
4996,-200.00
4997,-184.00
4998,-160.00
4999,-136.00
5000,-120.00
5001,-96.00
5002,-80.00
5003,-56.00
5004,-48.00
5005,-40.00
5006,-32.00
5007,-40.00
5008,-40.00
5009,-56.00
5010,-72.00
5011,-80.00
5012,-104.00
5013,-120.00
5014,-144.00
5015,-176.00
5016,-184.00
5017,-200.00
5018,-224.00
5019,-232.00
5020,-232.00
5021,-232.00
5022,-232.00
5023,-224.00
5024,-216.00
5025,-192.00
5026,-184.00
5027,-176.00
5028,-144.00
5029,-136.00
5030,-104.00
5031,-80.00
5032,-64.00
5033,-48.00
5034,-40.00
5035,-32.00
5036,-32.00
5037,-32.00
5038,-40.00
5039,-56.00
5040,-72.00
5041,-96.00
5042,-112.00
5043,-128.00
5044,-144.00
5045,-168.00
5046,-184.00
5047,-192.00
5048,-208.00
5049,-216.00
5050,-224.00
5051,-232.00
5052,-216.00
5053,-216.00
5054,-192.00
5055,-184.00
5056,-176.00
5057,-144.00
5058,-128.00
5059,-112.00
5060,-96.00
5061,-72.00
5062,-56.00
5063,-32.00
5064,-32.00
5065,-32.00
5066,-40.00
5067,-32.00
5068,-40.00
5069,-56.00
5070,-80.00
5071,-104.00
5072,-112.00
5073,-136.00
5074,-152.00
5075,-176.00
5076,-184.00
5077,-192.00
5078,-200.00
5079,-216.00
5080,-216.00
5081,-208.00
5082,-200.00
5083,-192.00
5084,-184.00
5085,-176.00
5086,-160.00
5087,-128.00
5088,-112.00
5089,-96.00
5090,-80.00
5091,-64.00
5092,-48.00
5093,-40.00
5094,-32.00
5095,-24.00
5096,-48.00
5097,-40.00
5098,-48.00
5099,-64.00
5100,-88.00
5101,-96.00
5102,-112.00
5103,-128.00
5104,-152.00
5105,-176.00
5106,-184.00
5107,-184.00
5108,-192.00
5109,-200.00
5110,-200.00
5111,-192.00
5112,-184.00
5113,-184.00
5114,-168.00
5115,-152.00
5116,-128.00
5117,-120.00
5118,-112.00
5119,-80.00
5120,-56.00
5121,-48.00
5122,-40.00
5123,-32.00
5124,-24.00
5125,-24.00
5126,-40.00
5127,-40.00
5128,-40.00
5129,-72.00
5130,-80.00
5131,-104.00
5132,-112.00
5133,-128.00
5134,-152.00
5135,-176.00
5136,-176.00
5137,-184.00
5138,-184.00
5139,-184.00
5140,-184.00
5141,-184.00
5142,-176.00
5143,-168.00
5144,-152.00
5145,-136.00
5146,-120.00
5147,-104.00
5148,-88.00
5149,-64.00
5150,-56.00
5151,-40.00
5152,-48.00
5153,-24.00
5154,-32.00
5155,-24.00
5156,-24.00
5157,-32.00
5158,-56.00
5159,-72.00
5160,-88.00
5161,-96.00
5162,-120.00
5163,-136.00
5164,-160.00
5165,-160.00
5166,-176.00
5167,-176.00
5168,-184.00
5169,-184.00
5170,-184.00
5171,-176.00
5172,-168.00
5173,-160.00
5174,-136.00
5175,-120.00
5176,-112.00
5177,-88.00
5178,-72.00
5179,-64.00
5180,-40.00
5181,-32.00
5182,-16.00
5183,-24.00
5184,-24.00
5185,-24.00
5186,-32.00
5187,-40.00
5188,-56.00
5189,-72.00
5190,-88.00
5191,-104.00
5192,-120.00
5193,-128.00
5194,-144.00
5195,-152.00
5196,-168.00
5197,-176.00
5198,-176.00
5199,-176.00
5200,-176.00
5201,-160.00
5202,-152.00
5203,-144.00
5204,-128.00
5205,-112.00
5206,-96.00
5207,-80.00
5208,-56.00
5209,-48.00
5210,-40.00
5211,-24.00
5212,-16.00
5213,-16.00
5214,-16.00
5215,-24.00
5216,-40.00
5217,168.00
5218,192.00
5219,240.00
5220,280.00
5221,320.00
5222,360.00
5223,400.00
5224,448.00
5225,456.00
5226,472.00
5227,488.00
5228,496.00
5229,488.00
5230,472.00
5231,456.00
5232,416.00
5233,384.00
5234,328.00
5235,296.00
5236,264.00
5237,224.00
5238,176.00
5239,152.00
5240,120.00
5241,104.00
5242,88.00
5243,88.00
5244,96.00
5245,112.00
5246,136.00
5247,176.00
5248,208.00
5249,240.00
5250,280.00
5251,328.00
5252,360.00
5253,400.00
5254,440.00
5255,456.00
5256,456.00
5257,472.00
5258,456.00
5259,456.00
5260,456.00
5261,416.00
5262,384.00
5263,344.00
5264,312.00
5265,272.00
5266,232.00
5267,200.00
5268,160.00
5269,128.00
5270,96.00
5271,96.00
5272,88.00
5273,88.00
5274,104.00
5275,120.00
5276,144.00
5277,176.00
5278,216.00
5279,256.00
5280,280.00
5281,336.00
5282,360.00
5283,392.00
5284,424.00
5285,440.00
5286,456.00
5287,456.00
5288,456.00
5289,440.00
5290,408.00
5291,384.00
5292,360.00
5293,304.00
5294,280.00
5295,240.00
5296,200.00
5297,168.00
5298,128.00
5299,112.00
5300,96.00
5301,88.00
5302,88.00
5303,88.00
5304,104.00
5305,128.00
5306,152.00
5307,176.00
5308,224.00
5309,256.00
5310,296.00
5311,336.00
5312,360.00
5313,384.00
5314,416.00
5315,424.00
5316,432.00
5317,432.00
5318,424.00
5319,400.00
5320,384.00
5321,352.00
5322,328.00
5323,280.00
5324,248.00
5325,216.00
5326,176.00
5327,152.00
5328,120.00
5329,96.00
5330,88.00
5331,88.00
5332,88.00
5333,96.00
5334,96.00
5335,120.00
5336,160.00
5337,192.00
5338,224.00
5339,272.00
5340,296.00
5341,328.00
5342,360.00
5343,368.00
5344,400.00
5345,408.00
5346,408.00
5347,400.00
5348,400.00
5349,376.00
5350,360.00
5351,328.00
5352,288.00
5353,264.00
5354,224.00
5355,184.00
5356,152.00
5357,128.00
5358,104.00
5359,80.00
5360,80.00
5361,88.00
5362,88.00
5363,96.00
5364,112.00
5365,136.00
5366,168.00
5367,192.00
5368,224.00
5369,272.00
5370,296.00
5371,328.00
5372,352.00
5373,376.00
5374,376.00
5375,384.00
5376,392.00
5377,384.00
5378,360.00
5379,336.00
5380,320.00
5381,296.00
5382,264.00
5383,224.00
5384,200.00
5385,176.00
5386,144.00
5387,104.00
5388,88.00
5389,88.00
5390,80.00
5391,80.00
5392,88.00
5393,104.00
5394,112.00
5395,136.00
5396,168.00
5397,200.00
5398,232.00
5399,272.00
5400,336.00
5401,352.00
5402,368.00
5403,376.00
5404,360.00
5405,360.00
5406,352.00
5407,328.00
5408,296.00
5409,272.00
5410,240.00
5411,200.00
5412,176.00
5413,152.00
5414,120.00
5415,96.00
5416,88.00
5417,80.00
5418,80.00
5419,80.00
5420,88.00
5421,104.00
5422,120.00
5423,144.00
5424,176.00
5425,208.00
5426,240.00
5427,264.00
5428,288.00
5429,312.00
5430,336.00
5431,352.00
5432,352.00
5433,352.00
5434,352.00
5435,336.00
5436,320.00
5437,296.00
5438,272.00
5439,240.00
5440,216.00
5441,176.00
5442,152.00
5443,120.00
5444,96.00
5445,88.00
5446,80.00
5447,72.00
5448,72.00
5449,80.00
5450,88.00
5451,104.00
5452,120.00
5453,152.00
5454,176.00
5455,216.00
5456,240.00
5457,272.00
5458,280.00
5459,312.00
5460,328.00
5461,336.00
5462,344.00
5463,336.00
5464,328.00
5465,312.00
5466,296.00
5467,272.00
5468,248.00
5469,216.00
5470,192.00
5471,160.00
5472,136.00
5473,112.00
5474,88.00
5475,80.00
5476,72.00
5477,64.00
5478,72.00
5479,80.00
5480,88.00
5481,96.00
5482,128.00
5483,160.00
5484,176.00
5485,216.00
5486,240.00
5487,264.00
5488,280.00
5489,304.00
5490,312.00
5491,320.00
5492,320.00
5493,328.00
5494,304.00
5495,288.00
5496,272.00
5497,256.00
5498,224.00
5499,192.00
5500,176.00
5501,152.00
5502,104.00
5503,96.00
5504,80.00
5505,72.00
5506,72.00
5507,64.00
5508,64.00
5509,80.00
5510,96.00
5511,104.00
5512,136.00
5513,168.00
5514,184.00
5515,208.00
5516,240.00
5517,264.00
5518,280.00
5519,288.00
5520,296.00
5521,296.00
5522,304.00
5523,296.00
5524,288.00
5525,272.00
5526,256.00
5527,224.00
5528,192.00
5529,176.00
5530,152.00
5531,120.00
5532,104.00
5533,88.00
5534,72.00
5535,64.00
5536,56.00
5537,64.00
5538,64.00
5539,80.00
5540,96.00
5541,112.00
5542,144.00
5543,168.00
5544,184.00
5545,216.00
5546,240.00
5547,256.00
5548,272.00
5549,288.00
5550,280.00
5551,280.00
5552,280.00
5553,280.00
5554,272.00
5555,248.00
5556,232.00
5557,208.00
5558,176.00
5559,160.00
5560,128.00
5561,104.00
5562,88.00
5563,80.00
5564,64.00
5565,48.00
5566,48.00
5567,64.00
5568,72.00
5569,88.00
5570,96.00
5571,120.00
5572,144.00
5573,168.00
5574,192.00
5575,208.00
5576,240.00
5577,256.00
5578,272.00
5579,272.00
5580,272.00
5581,272.00
5582,272.00
5583,248.00
5584,248.00
5585,216.00
5586,208.00
5587,184.00
5588,160.00
5589,136.00
5590,112.00
5591,96.00
5592,80.00
5593,64.00
5594,64.00
5595,56.00
5596,48.00
5597,64.00
5598,80.00
5599,88.00
5600,96.00
5601,120.00
5602,144.00
5603,168.00
5604,192.00
5605,216.00
5606,224.00
5607,248.00
5608,264.00
5609,272.00
5610,272.00
5611,256.00
5612,256.00
5613,240.00
5614,232.00
5615,208.00
5616,176.00
5617,168.00
5618,144.00
5619,120.00
5620,96.00
5621,88.00
5622,64.00
5623,48.00
5624,56.00
5625,56.00
5626,48.00
5627,64.00
5628,80.00
5629,80.00
5630,104.00
5631,128.00
5632,152.00
5633,176.00
5634,192.00
5635,216.00
5636,224.00
5637,248.00
5638,248.00
5639,256.00
5640,248.00
5641,248.00
5642,240.00
5643,232.00
5644,208.00
5645,184.00
5646,168.00
5647,144.00
5648,120.00
5649,104.00
5650,88.00
5651,72.00
5652,64.00
5653,40.00
5654,48.00
5655,48.00
5656,48.00
5657,64.00
5658,80.00
5659,88.00
5660,104.00
5661,136.00
5662,152.00
5663,168.00
5664,184.00
5665,208.00
5666,224.00
5667,224.00
5668,240.00
5669,240.00
5670,240.00
5671,232.00
5672,224.00
5673,208.00
5674,192.00
5675,168.00
5676,152.00
5677,120.00
5678,104.00
5679,88.00
5680,80.00
5681,64.00
5682,48.00
5683,40.00
5684,48.00
5685,48.00
5686,56.00
5687,64.00
5688,80.00
5689,96.00
5690,96.00
5691,136.00
5692,152.00
5693,168.00
5694,192.00
5695,208.00
5696,216.00
5697,224.00
5698,232.00
5699,224.00
5700,224.00
5701,224.00
5702,208.00
5703,192.00
5704,176.00
5705,160.00
5706,136.00
5707,112.00
5708,96.00
5709,88.00
5710,64.00
5711,56.00
5712,48.00
5713,48.00
5714,48.00
5715,56.00
5716,48.00
5717,64.00
5718,80.00
5719,104.00
5720,112.00
5721,136.00
5722,160.00
5723,176.00
5724,192.00
5725,192.00
5726,208.00
5727,216.00
5728,216.00
5729,224.00
5730,208.00
5731,200.00
5732,192.00
5733,176.00
5734,160.00
5735,128.00
5736,120.00
5737,96.00
5738,88.00
5739,64.00
5740,48.00
5741,48.00
5742,48.00
5743,40.00
5744,48.00
5745,48.00
5746,56.00
5747,64.00
5748,88.00
5749,104.00
5750,120.00
5751,136.00
5752,152.00
5753,176.00
5754,176.00
5755,192.00
5756,200.00
5757,208.00
5758,208.00
5759,192.00
5760,200.00
5761,192.00
5762,176.00
5763,160.00
5764,136.00
5765,120.00
5766,104.00
5767,88.00
5768,80.00
5769,64.00
5770,48.00
5771,40.00
5772,40.00
5773,40.00
5774,48.00
5775,48.00
5776,64.00
5777,80.00
5778,88.00
5779,104.00
5780,120.00
5781,144.00
5782,152.00
5783,176.00
5784,176.00
5785,192.00
5786,200.00
5787,184.00
5788,176.00
5789,192.00
5790,184.00
5791,176.00
5792,160.00
5793,144.00
5794,128.00
5795,96.00
5796,96.00
5797,88.00
5798,72.00
5799,48.00
5800,48.00
5801,40.00
5802,32.00
5803,40.00
5804,48.00
5805,40.00
5806,64.00
5807,80.00
5808,80.00
5809,112.00
5810,120.00
5811,136.00
5812,152.00
5813,168.00
5814,176.00
5815,176.00
5816,184.00
5817,192.00
5818,184.00
5819,176.00
5820,176.00
5821,168.00
5822,152.00
5823,128.00
5824,104.00
5825,96.00
5826,88.00
5827,72.00
5828,56.00
5829,48.00
5830,40.00
5831,32.00
5832,40.00
5833,40.00
5834,40.00
5835,56.00
5836,64.00
5837,80.00
5838,88.00
5839,104.00
5840,120.00
5841,136.00
5842,-424.00
5843,-456.00
5844,-472.00
5845,-488.00
5846,-488.00
5847,-488.00
5848,-480.00
5849,-464.00
5850,-440.00
5851,-408.00
5852,-368.00
5853,-328.00
5854,-280.00
5855,-256.00
5856,-192.00
5857,-176.00
5858,-136.00
5859,-112.00
5860,-96.00
5861,-96.00
5862,-96.00
5863,-112.00
5864,-136.00
5865,-160.00
5866,-192.00
5867,-232.00
5868,-264.00
5869,-304.00
5870,-344.00
5871,-376.00
5872,-416.00
5873,-440.00
5874,-456.00
5875,-464.00
5876,-464.00
5877,-464.00
5878,-448.00
5879,-432.00
5880,-400.00
5881,-368.00
5882,-336.00
5883,-288.00
5884,-256.00
5885,-216.00
5886,-176.00
5887,-144.00
5888,-120.00
5889,-104.00
5890,-96.00
5891,-88.00
5892,-96.00
5893,-112.00
5894,-136.00
5895,-160.00
5896,-192.00
5897,-240.00
5898,-272.00
5899,-304.00
5900,-352.00
5901,-376.00
5902,-408.00
5903,-424.00
5904,-448.00
5905,-456.00
5906,-448.00
5907,-440.00
5908,-424.00
5909,-408.00
5910,-368.00
5911,-336.00
5912,-304.00
5913,-264.00
5914,-232.00
5915,-184.00
5916,-152.00
5917,-120.00
5918,-104.00
5919,-96.00
5920,-88.00
5921,-88.00
5922,-96.00
5923,-104.00
5924,-136.00
5925,-176.00
5926,-200.00
5927,-248.00
5928,-280.00
5929,-312.00
5930,-352.00
5931,-368.00
5932,-392.00
5933,-416.00
5934,-424.00
5935,-432.00
5936,-424.00
5937,-408.00
5938,-392.00
5939,-368.00
5940,-344.00
5941,-304.00
5942,-272.00
5943,-232.00
5944,-192.00
5945,-160.00
5946,-136.00
5947,-112.00
5948,-96.00
5949,-88.00
5950,-88.00
5951,-80.00
5952,-104.00
5953,-112.00
5954,-136.00
5955,-176.00
5956,-208.00
5957,-248.00
5958,-280.00
5959,-312.00
5960,-344.00
5961,-368.00
5962,-384.00
5963,-400.00
5964,-408.00
5965,-408.00
5966,-392.00
5967,-392.00
5968,-368.00
5969,-336.00
5970,-304.00
5971,-272.00
5972,-248.00
5973,-200.00
5974,-176.00
5975,-144.00
5976,-112.00
5977,-104.00
5978,-88.00
5979,-80.00
5980,-80.00
5981,-88.00
5982,-96.00
5983,-128.00
5984,-160.00
5985,-184.00
5986,-216.00
5987,-248.00
5988,-280.00
5989,-304.00
5990,-336.00
5991,-360.00
5992,-376.00
5993,-384.00
5994,-384.00
5995,-384.00
5996,-368.00
5997,-360.00
5998,-336.00
5999,-312.00
6000,-216.00
6001,-184.00
6002,-160.00
6003,-128.00
6004,-104.00
6005,-88.00
6006,-80.00
6007,-72.00
6008,-80.00
6009,-88.00
6010,-104.00
6011,-120.00
6012,-160.00
6013,-184.00
6014,-216.00
6015,-248.00
6016,-280.00
6017,-304.00
6018,-328.00
6019,-352.00
6020,-360.00
6021,-368.00
6022,-368.00
6023,-368.00
6024,-352.00
6025,-328.00
6026,-312.00
6027,-280.00
6028,-248.00
6029,-216.00
6030,-184.00
6031,-160.00
6032,-128.00
6033,-96.00
6034,-88.00
6035,-80.00
6036,-80.00
6037,-64.00
6038,-72.00
6039,-88.00
6040,-112.00
6041,-128.00
6042,-160.00
6043,-192.00
6044,-216.00
6045,-248.00
6046,-280.00
6047,-296.00
6048,-320.00
6049,-344.00
6050,-352.00
6051,-352.00
6052,-352.00
6053,-336.00
6054,-328.00
6055,-304.00
6056,-280.00
6057,-248.00
6058,-232.00
6059,-192.00
6060,-176.00
6061,-136.00
6062,-112.00
6063,-88.00
6064,-72.00
6065,-64.00
6066,-64.00
6067,-64.00
6068,-72.00
6069,-88.00
6070,-104.00
6071,-128.00
6072,-168.00
6073,-184.00
6074,-216.00
6075,-248.00
6076,-272.00
6077,-296.00
6078,-312.00
6079,-328.00
6080,-328.00
6081,-328.00
6082,-328.00
6083,-320.00
6084,-304.00
6085,-280.00
6086,-256.00
6087,-232.00
6088,-200.00
6089,-176.00
6090,-144.00
6091,-112.00
6092,-96.00
6093,-80.00
6094,-64.00
6095,-64.00
6096,-56.00
6097,-64.00
6098,-72.00
6099,-96.00
6100,-112.00
6101,-136.00
6102,-176.00
6103,-184.00
6104,-224.00
6105,-248.00
6106,-272.00
6107,-288.00
6108,-296.00
6109,-312.00
6110,-320.00
6111,-312.00
6112,-304.00
6113,-296.00
6114,-280.00
6115,-256.00
6116,-240.00
6117,-200.00
6118,-184.00
6119,-152.00
6120,-136.00
6121,-104.00
6122,-80.00
6123,-72.00
6124,-56.00
6125,-56.00
6126,-56.00
6127,-72.00
6128,-72.00
6129,-104.00
6130,-112.00
6131,-144.00
6132,-176.00
6133,-192.00
6134,-216.00
6135,-248.00
6136,-272.00
6137,-280.00
6138,-288.00
6139,-304.00
6140,-304.00
6141,-296.00
6142,-288.00
6143,-272.00
6144,-256.00
6145,-232.00
6146,-208.00
6147,-184.00
6148,-152.00
6149,-128.00
6150,-112.00
6151,-88.00
6152,-72.00
6153,-64.00
6154,-56.00
6155,-56.00
6156,-56.00
6157,-72.00
6158,-80.00
6159,-104.00
6160,-128.00
6161,-144.00
6162,-176.00
6163,-184.00
6164,-224.00
6165,-240.00
6166,-264.00
6167,-272.00
6168,-280.00
6169,-280.00
6170,-280.00
6171,-280.00
6172,-272.00
6173,-256.00
6174,-232.00
6175,-216.00
6176,-184.00
6177,-176.00
6178,-144.00
6179,-112.00
6180,-104.00
6181,-72.00
6182,-56.00
6183,-48.00
6184,-48.00
6185,-48.00
6186,-56.00
6187,-72.00
6188,-80.00
6189,-112.00
6190,-128.00
6191,-144.00
6192,-176.00
6193,-192.00
6194,-216.00
6195,-248.00
6196,-256.00
6197,-264.00
6198,-272.00
6199,-272.00
6200,-264.00
6201,-264.00
6202,-256.00
6203,-232.00
6204,-216.00
6205,-184.00
6206,-168.00
6207,-144.00
6208,-120.00
6209,-96.00
6210,-80.00
6211,-64.00
6212,-48.00
6213,-56.00
6214,-40.00
6215,-48.00
6216,-56.00
6217,-72.00
6218,-88.00
6219,-112.00
6220,-128.00
6221,-152.00
6222,-176.00
6223,-192.00
6224,-216.00
6225,-232.00
6226,-248.00
6227,-256.00
6228,-256.00
6229,-256.00
6230,-256.00
6231,-240.00
6232,-232.00
6233,-208.00
6234,-184.00
6235,-176.00
6236,-144.00
6237,-128.00
6238,-96.00
6239,-88.00
6240,-64.00
6241,-56.00
6242,-40.00
6243,-40.00
6244,-32.00
6245,-40.00
6246,-56.00
6247,-64.00
6248,-96.00
6249,-112.00
6250,-128.00
6251,-160.00
6252,-176.00
6253,-192.00
6254,-216.00
6255,-224.00
6256,-248.00
6257,-248.00
6258,-240.00
6259,-240.00
6260,-248.00
6261,-224.00
6262,-216.00
6263,-184.00
6264,-176.00
6265,-152.00
6266,-128.00
6267,-112.00
6268,-88.00
6269,-72.00
6270,-56.00
6271,-40.00
6272,-40.00
6273,-40.00
6274,-40.00
6275,-40.00
6276,-56.00
6277,-80.00
6278,-96.00
6279,-112.00
6280,-136.00
6281,-160.00
6282,-176.00
6283,-192.00
6284,-208.00
6285,-224.00
6286,-224.00
6287,-232.00
6288,-232.00
6289,-232.00
6290,-216.00
6291,-200.00
6292,-184.00
6293,-176.00
6294,-160.00
6295,-136.00
6296,-112.00
6297,-96.00
6298,-72.00
6299,-56.00
6300,-48.00
6301,-40.00
6302,-40.00
6303,-32.00
6304,-32.00
6305,-48.00
6306,-56.00
6307,-72.00
6308,-96.00
6309,-112.00
6310,-136.00
6311,-160.00
6312,-176.00
6313,-184.00
6314,-200.00
6315,-224.00
6316,-216.00
6317,-224.00
6318,-216.00
6319,-224.00
6320,-200.00
6321,-184.00
6322,-184.00
6323,-152.00
6324,-144.00
6325,-120.00
6326,-104.00
6327,-80.00
6328,-72.00
6329,-48.00
6330,-40.00
6331,-32.00
6332,-40.00
6333,-32.00
6334,-40.00
6335,-56.00
6336,-72.00
6337,-88.00
6338,-96.00
6339,-120.00
6340,-144.00
6341,-160.00
6342,-176.00
6343,-184.00
6344,-192.00
6345,-200.00
6346,-216.00
6347,-216.00
6348,-200.00
6349,-192.00
6350,-184.00
6351,-176.00
6352,-160.00
6353,-144.00
6354,-120.00
6355,-104.00
6356,-88.00
6357,-64.00
6358,-56.00
6359,-40.00
6360,-40.00
6361,-24.00
6362,-24.00
6363,-32.00
6364,-40.00
6365,-56.00
6366,-72.00
6367,-88.00
6368,-104.00
6369,-120.00
6370,-144.00
6371,-160.00
6372,-176.00
6373,-184.00
6374,-184.00
6375,-192.00
6376,-200.00
6377,-192.00
6378,-192.00
6379,-184.00
6380,-176.00
6381,-160.00
6382,-144.00
6383,-128.00
6384,-112.00
6385,-96.00
6386,-72.00
6387,-56.00
6388,-40.00
6389,-32.00
6390,-24.00
6391,-24.00
6392,-24.00
6393,-32.00
6394,-40.00
6395,-56.00
6396,-72.00
6397,-96.00
6398,-104.00
6399,-128.00
6400,-136.00
6401,-152.00
6402,-176.00
6403,-176.00
6404,-192.00
6405,-184.00
6406,-184.00
6407,-184.00
6408,-192.00
6409,-176.00
6410,-160.00
6411,-152.00
6412,-128.00
6413,-112.00
6414,-96.00
6415,-80.00
6416,-56.00
6417,-48.00
6418,-32.00
6419,-24.00
6420,-24.00
6421,-24.00
6422,-24.00
6423,-40.00
6424,-40.00
6425,-56.00
6426,-72.00
6427,-96.00
6428,-112.00
6429,-136.00
6430,-136.00
6431,-152.00
6432,-168.00
6433,-176.00
6434,-184.00
6435,-184.00
6436,-184.00
6437,-176.00
6438,-176.00
6439,-160.00
6440,-144.00
6441,-136.00
6442,-112.00
6443,-96.00
6444,-88.00
6445,-64.00
6446,-56.00
6447,-40.00
6448,-24.00
6449,-24.00
6450,-24.00
6451,-24.00
6452,-24.00
6453,-32.00
6454,-40.00
6455,-64.00
6456,-80.00
6457,-96.00
6458,-112.00
6459,-128.00
6460,-136.00
6461,-152.00
6462,-160.00
6463,-176.00
6464,-176.00
6465,-176.00
6466,-176.00
6467,-176.00
6468,-160.00
6469,-144.00
6470,-136.00
6471,-120.00
6472,-104.00
6473,-88.00
6474,-72.00
6475,-56.00
6476,-40.00
6477,-48.00
6478,-16.00
6479,-16.00
6480,96.00
6481,104.00
6482,104.00
6483,136.00
6484,176.00
6485,216.00
6486,256.00
6487,288.00
6488,336.00
6489,368.00
6490,416.00
6491,448.00
6492,456.00
6493,480.00
6494,488.00
6495,472.00
6496,472.00
6497,456.00
6498,432.00
6499,392.00
6500,360.00
6501,320.00
6502,288.00
6503,248.00
6504,200.00
6505,168.00
6506,144.00
6507,96.00
6508,96.00
6509,88.00
6510,88.00
6511,104.00
6512,120.00
6513,152.00
6514,176.00
6515,216.00
6516,272.00
6517,304.00
6518,344.00
6519,376.00
6520,408.00
6521,440.00
6522,456.00
6523,456.00
6524,472.00
6525,464.00
6526,456.00
6527,440.00
6528,400.00
6529,360.00
6530,336.00
6531,288.00
6532,256.00
6533,216.00
6534,176.00
6535,144.00
6536,112.00
6537,96.00
6538,88.00
6539,96.00
6540,88.00
6541,96.00
6542,120.00
6543,160.00
6544,192.00
6545,216.00
6546,272.00
6547,304.00
6548,344.00
6549,368.00
6550,408.00
6551,432.00
6552,440.00
6553,448.00
6554,448.00
6555,448.00
6556,432.00
6557,400.00
6558,360.00
6559,344.00
6560,296.00
6561,264.00
6562,224.00
6563,184.00
6564,160.00
6565,128.00
6566,104.00
6567,88.00
6568,88.00
6569,88.00
6570,96.00
6571,96.00
6572,136.00
6573,168.00
6574,200.00
6575,232.00
6576,272.00
6577,296.00
6578,344.00
6579,360.00
6580,400.00
6581,416.00
6582,432.00
6583,432.00
6584,424.00
6585,416.00
6586,400.00
6587,368.00
6588,344.00
6589,312.00
6590,272.00
6591,240.00
6592,200.00
6593,168.00
6594,136.00
6595,104.00
6596,88.00
6597,88.00
6598,88.00
6599,88.00
6600,128.00
6601,160.00
6602,208.00
6603,240.00
6604,272.00
6605,304.00
6606,336.00
6607,360.00
6608,392.00
6609,400.00
6610,408.00
6611,400.00
6612,400.00
6613,384.00
6614,360.00
6615,344.00
6616,312.00
6617,280.00
6618,240.00
6619,216.00
6620,176.00
6621,136.00
6622,120.00
6623,96.00
6624,88.00
6625,80.00
6626,88.00
6627,88.00
6628,96.00
6629,120.00
6630,144.00
6631,176.00
6632,208.00
6633,248.00
6634,272.00
6635,304.00
6636,336.00
6637,360.00
6638,376.00
6639,384.00
6640,392.00
6641,392.00
6642,376.00
6643,360.00
6644,344.00
6645,312.00
6646,280.00
6647,248.00
6648,216.00
6649,184.00
6650,160.00
6651,120.00
6652,104.00
6653,88.00
6654,80.00
6655,80.00
6656,80.00
6657,88.00
6658,96.00
6659,120.00
6660,152.00
6661,184.00
6662,216.00
6663,240.00
6664,272.00
6665,296.00
6666,328.00
6667,344.00
6668,360.00
6669,368.00
6670,360.00
6671,360.00
6672,352.00
6673,344.00
6674,312.00
6675,280.00
6676,256.00
6677,224.00
6678,192.00
6679,168.00
6680,128.00
6681,96.00
6682,88.00
6683,80.00
6684,80.00
6685,80.00
6686,88.00
6687,88.00
6688,104.00
6689,128.00
6690,160.00
6691,176.00
6692,216.00
6693,240.00
6694,272.00
6695,296.00
6696,320.00
6697,336.00
6698,352.00
6699,360.00
6700,352.00
6701,344.00
6702,328.00
6703,312.00
6704,280.00
6705,248.00
6706,232.00
6707,192.00
6708,176.00
6709,128.00
6710,96.00
6711,96.00
6712,88.00
6713,80.00
6714,72.00
6715,72.00
6716,80.00
6717,88.00
6718,96.00
6719,128.00
6720,168.00
6721,192.00
6722,216.00
6723,248.00
6724,272.00
6725,296.00
6726,312.00
6727,336.00
6728,336.00
6729,344.00
6730,336.00
6731,312.00
6732,312.00
6733,288.00
6734,256.00
6735,232.00
6736,208.00
6737,176.00
6738,152.00
6739,120.00
6740,96.00
6741,88.00
6742,80.00
6743,64.00
6744,64.00
6745,72.00
6746,88.00
6747,88.00
6748,104.00
6749,144.00
6750,168.00
6751,200.00
6752,224.00
6753,240.00
6754,272.00
6755,288.00
6756,312.00
6757,312.00
6758,320.00
6759,320.00
6760,312.00
6761,296.00
6762,288.00
6763,256.00
6764,240.00
6765,216.00
6766,176.00
6767,160.00
6768,128.00
6769,96.00
6770,88.00
6771,80.00
6772,64.00
6773,64.00
6774,64.00
6775,72.00
6776,80.00
6777,96.00
6778,120.00
6779,144.00
6780,176.00
6781,192.00
6782,224.00
6783,248.00
6784,272.00
6785,272.00
6786,296.00
6787,304.00
6788,304.00
6789,296.00
6790,288.00
6791,280.00
6792,264.00
6793,240.00
6794,216.00
6795,192.00
6796,168.00
6797,136.00
6798,112.00
6799,88.00
6800,88.00
6801,72.00
6802,64.00
6803,64.00
6804,64.00
6805,80.00
6806,88.00
6807,96.00
6808,120.00
6809,152.00
6810,176.00
6811,192.00
6812,224.00
6813,240.00
6814,272.00
6815,272.00
6816,272.00
6817,288.00
6818,288.00
6819,280.00
6820,272.00
6821,264.00
6822,240.00
6823,224.00
6824,192.00
6825,168.00
6826,136.00
6827,120.00
6828,104.00
6829,88.00
6830,64.00
6831,64.00
6832,56.00
6833,64.00
6834,64.00
6835,80.00
6836,88.00
6837,112.00
6838,128.00
6839,152.00
6840,176.00
6841,192.00
6842,224.00
6843,248.00
6844,248.00
6845,272.00
6846,272.00
6847,280.00
6848,280.00
6849,272.00
6850,264.00
6851,240.00
6852,216.00
6853,200.00
6854,168.00
6855,152.00
6856,128.00
6857,104.00
6858,88.00
6859,72.00
6860,64.00
6861,48.00
6862,48.00
6863,48.00
6864,64.00
6865,80.00
6866,88.00
6867,112.00
6868,128.00
6869,160.00
6870,176.00
6871,192.00
6872,224.00
6873,240.00
6874,248.00
6875,256.00
6876,272.00
6877,272.00
6878,264.00
6879,248.00
6880,240.00
6881,224.00
6882,200.00
6883,176.00
6884,160.00
6885,136.00
6886,96.00
6887,88.00
6888,80.00
6889,64.00
6890,64.00
6891,56.00
6892,56.00
6893,56.00
6894,72.00
6895,88.00
6896,96.00
6897,96.00
6898,144.00
6899,160.00
6900,176.00
6901,192.00
6902,216.00
6903,216.00
6904,240.00
6905,248.00
6906,248.00
6907,240.00
6908,248.00
6909,216.00
6910,216.00
6911,192.00
6912,176.00
6913,160.00
6914,136.00
6915,104.00
6916,96.00
6917,88.00
6918,64.00
6919,64.00
6920,40.00
6921,48.00
6922,56.00
6923,56.00
6924,72.00
6925,88.00
6926,96.00
6927,112.00
6928,144.00
6929,160.00
6930,176.00
6931,192.00
6932,208.00
6933,216.00
6934,232.00
6935,240.00
6936,240.00
6937,232.00
6938,216.00
6939,216.00
6940,192.00
6941,184.00
6942,160.00
6943,144.00
6944,128.00
6945,96.00
6946,88.00
6947,72.00
6948,56.00
6949,48.00
6950,48.00
6951,48.00
6952,48.00
6953,64.00
6954,64.00
6955,88.00
6956,96.00
6957,120.00
6958,144.00
6959,160.00
6960,176.00
6961,192.00
6962,208.00
6963,216.00
6964,232.00
6965,224.00
6966,232.00
6967,224.00
6968,216.00
6969,192.00
6970,176.00
6971,168.00
6972,144.00
6973,120.00
6974,96.00
6975,88.00
6976,80.00
6977,64.00
6978,48.00
6979,48.00
6980,48.00
6981,48.00
6982,56.00
6983,56.00
6984,80.00
6985,88.00
6986,104.00
6987,120.00
6988,144.00
6989,160.00
6990,176.00
6991,192.00
6992,208.00
6993,216.00
6994,216.00
6995,216.00
6996,216.00
6997,208.00
6998,184.00
6999,176.00
7000,168.00
7001,152.00
7002,128.00
7003,104.00
7004,96.00
7005,88.00
7006,64.00
7007,48.00
7008,40.00
7009,48.00
7010,48.00
7011,40.00
7012,48.00
7013,64.00
7014,80.00
7015,88.00
7016,112.00
7017,120.00
7018,136.00
7019,160.00
7020,176.00
7021,192.00
7022,200.00
7023,200.00
7024,208.00
7025,208.00
7026,192.00
7027,192.00
7028,176.00
7029,168.00
7030,160.00
7031,144.00
7032,120.00
7033,96.00
7034,88.00
7035,64.00
7036,56.00
7037,48.00
7038,40.00
7039,48.00
7040,48.00
7041,48.00
7042,48.00
7043,64.00
7044,80.00
7045,88.00
7046,112.00
7047,120.00
7048,136.00
7049,168.00
7050,176.00
7051,192.00
7052,192.00
7053,192.00
7054,192.00
7055,192.00
7056,192.00
7057,176.00
7058,168.00
7059,160.00
7060,136.00
7061,120.00
7062,104.00
7063,88.00
7064,80.00
7065,56.00
7066,48.00
7067,48.00
7068,32.00
7069,32.00
7070,40.00
7071,40.00
7072,56.00
7073,72.00
7074,88.00
7075,96.00
7076,112.00
7077,136.00
7078,144.00
7079,160.00
7080,160.00
7081,176.00
7082,176.00
7083,192.00
7084,184.00
7085,176.00
7086,176.00
7087,168.00
7088,160.00
7089,136.00
7090,128.00
7091,96.00
7092,88.00
7093,80.00
7094,72.00
7095,40.00
7096,48.00
7097,40.00
7098,24.00
7099,40.00
7100,40.00
7101,48.00
7102,56.00
7103,64.00
7104,88.00
7105,-272.00
7106,-320.00
7107,-360.00
7108,-392.00
7109,-432.00
7110,-464.00
7111,-472.00
7112,-488.00
7113,-488.00
7114,-480.00
7115,-472.00
7116,-456.00
7117,-424.00
7118,-392.00
7119,-352.00
7120,-312.00
7121,-280.00
7122,-232.00
7123,-184.00
7124,-160.00
7125,-128.00
7126,-112.00
7127,-104.00
7128,-96.00
7129,-96.00
7130,-112.00
7131,-136.00
7132,-176.00
7133,-200.00
7134,-248.00
7135,-280.00
7136,-320.00
7137,-368.00
7138,-384.00
7139,-416.00
7140,-456.00
7141,-464.00
7142,-464.00
7143,-464.00
7144,-464.00
7145,-440.00
7146,-424.00
7147,-392.00
7148,-360.00
7149,-312.00
7150,-280.00
7151,-240.00
7152,-192.00
7153,-168.00
7154,-136.00
7155,-112.00
7156,-96.00
7157,-96.00
7158,-96.00
7159,-96.00
7160,-120.00
7161,-144.00
7162,-176.00
7163,-216.00
7164,-248.00
7165,-280.00
7166,-320.00
7167,-352.00
7168,-384.00
7169,-416.00
7170,-432.00
7171,-440.00
7172,-448.00
7173,-440.00
7174,-432.00
7175,-408.00
7176,-400.00
7177,-360.00
7178,-320.00
7179,-280.00
7180,-248.00
7181,-216.00
7182,-176.00
7183,-144.00
7184,-112.00
7185,-96.00
7186,-88.00
7187,-88.00
7188,-96.00
7189,-104.00
7190,-120.00
7191,-144.00
7192,-176.00
7193,-224.00
7194,-248.00
7195,-288.00
7196,-320.00
7197,-352.00
7198,-384.00
7199,-400.00
7200,-424.00
7201,-424.00
7202,-408.00
7203,-384.00
7204,-360.00
7205,-328.00
7206,-288.00
7207,-256.00
7208,-216.00
7209,-184.00
7210,-144.00
7211,-120.00
7212,-104.00
7213,-88.00
7214,-88.00
7215,-80.00
7216,-88.00
7217,-96.00
7218,-128.00
7219,-152.00
7220,-184.00
7221,-216.00
7222,-256.00
7223,-280.00
7224,-320.00
7225,-352.00
7226,-368.00
7227,-384.00
7228,-408.00
7229,-408.00
7230,-400.00
7231,-392.00
7232,-368.00
7233,-352.00
7234,-320.00
7235,-288.00
7236,-256.00
7237,-232.00
7238,-184.00
7239,-152.00
7240,-128.00
7241,-112.00
7242,-88.00
7243,-80.00
7244,-80.00
7245,-80.00
7246,-96.00
7247,-104.00
7248,-128.00
7249,-160.00
7250,-184.00
7251,-224.00
7252,-248.00
7253,-288.00
7254,-320.00
7255,-344.00
7256,-368.00
7257,-376.00
7258,-384.00
7259,-376.00
7260,-376.00
7261,-368.00
7262,-352.00
7263,-328.00
7264,-288.00
7265,-264.00
7266,-232.00
7267,-192.00
7268,-168.00
7269,-136.00
7270,-112.00
7271,-96.00
7272,-80.00
7273,-72.00
7274,-72.00
7275,-80.00
7276,-88.00
7277,-112.00
7278,-136.00
7279,-160.00
7280,-184.00
7281,-232.00
7282,-256.00
7283,-288.00
7284,-312.00
7285,-336.00
7286,-352.00
7287,-368.00
7288,-360.00
7289,-368.00
7290,-352.00
7291,-344.00
7292,-320.00
7293,-296.00
7294,-272.00
7295,-248.00
7296,-200.00
7297,-176.00
7298,-144.00
7299,-120.00
7300,-96.00
7301,-80.00
7302,-72.00
7303,-72.00
7304,-64.00
7305,-72.00
7306,-104.00
7307,-112.00
7308,-136.00
7309,-176.00
7310,-192.00
7311,-224.00
7312,-256.00
7313,-280.00
7314,-304.00
7315,-328.00
7316,-336.00
7317,-352.00
7318,-352.00
7319,-344.00
7320,-328.00
7321,-320.00
7322,-296.00
7323,-280.00
7324,-248.00
7325,-208.00
7326,-184.00
7327,-160.00
7328,-120.00
7329,-104.00
7330,-80.00
7331,-72.00
7332,-72.00
7333,-56.00
7334,-72.00
7335,-80.00
7336,-104.00
7337,-120.00
7338,-144.00
7339,-168.00
7340,-200.00
7341,-232.00
7342,-256.00
7343,-280.00
7344,-304.00
7345,-320.00
7346,-328.00
7347,-328.00
7348,-328.00
7349,-320.00
7350,-304.00
7351,-288.00
7352,-272.00
7353,-248.00
7354,-224.00
7355,-184.00
7356,-160.00
7357,-136.00
7358,-96.00
7359,-88.00
7360,-72.00
7361,-64.00
7362,-56.00
7363,-56.00
7364,-72.00
7365,-80.00
7366,-104.00
7367,-120.00
7368,-144.00
7369,-184.00
7370,-200.00
7371,-232.00
7372,-256.00
7373,-280.00
7374,-288.00
7375,-304.00
7376,-312.00
7377,-312.00
7378,-312.00
7379,-296.00
7380,-288.00
7381,-272.00
7382,-248.00
7383,-224.00
7384,-192.00
7385,-160.00
7386,-136.00
7387,-112.00
7388,-104.00
7389,-80.00
7390,-64.00
7391,-56.00
7392,-56.00
7393,-56.00
7394,-64.00
7395,-80.00
7396,-104.00
7397,-120.00
7398,-160.00
7399,-184.00
7400,-200.00
7401,-232.00
7402,-248.00
7403,-272.00
7404,-280.00
7405,-288.00
7406,-288.00
7407,-296.00
7408,-288.00
7409,-280.00
7410,-272.00
7411,-248.00
7412,-232.00
7413,-200.00
7414,-176.00
7415,-144.00
7416,-120.00
7417,-104.00
7418,-80.00
7419,-64.00
7420,-56.00
7421,-48.00
7422,-56.00
7423,-56.00
7424,-72.00
7425,-96.00
7426,-112.00
7427,-128.00
7428,-152.00
7429,-184.00
7430,-192.00
7431,-224.00
7432,-248.00
7433,-272.00
7434,-272.00
7435,-280.00
7436,-280.00
7437,-280.00
7438,-272.00
7439,-264.00
7440,-248.00
7441,-232.00
7442,-192.00
7443,-184.00
7444,-160.00
7445,-128.00
7446,-104.00
7447,-88.00
7448,-72.00
7449,-56.00
7450,-40.00
7451,-56.00
7452,-48.00
7453,-56.00
7454,-64.00
7455,-96.00
7456,-104.00
7457,-136.00
7458,-152.00
7459,-184.00
7460,-200.00
7461,-224.00
7462,-248.00
7463,-256.00
7464,-264.00
7465,-280.00
7466,-272.00
7467,-272.00
7468,-256.00
7469,-256.00
7470,-224.00
7471,-200.00
7472,-184.00
7473,-160.00
7474,-136.00
7475,-112.00
7476,-96.00
7477,-72.00
7478,-56.00
7479,-56.00
7480,-40.00
7481,-40.00
7482,-48.00
7483,-56.00
7484,-80.00
7485,-96.00
7486,-120.00
7487,-136.00
7488,-160.00
7489,-184.00
7490,-192.00
7491,-216.00
7492,-240.00
7493,-248.00
7494,-256.00
7495,-256.00
7496,-248.00
7497,-256.00
7498,-240.00
7499,-224.00
7500,-200.00
7501,-184.00
7502,-160.00
7503,-136.00
7504,-112.00
7505,-96.00
7506,-72.00
7507,-56.00
7508,-48.00
7509,-40.00
7510,-32.00
7511,-40.00
7512,-56.00
7513,-72.00
7514,-80.00
7515,-112.00
7516,-120.00
7517,-136.00
7518,-168.00
7519,-184.00
7520,-192.00
7521,-224.00
7522,-232.00
7523,-248.00
7524,-248.00
7525,-256.00
7526,-240.00
7527,-232.00
7528,-216.00
7529,-200.00
7530,-184.00
7531,-168.00
7532,-144.00
7533,-120.00
7534,-96.00
7535,-80.00
7536,-72.00
7537,-56.00
7538,-40.00
7539,-32.00
7540,-32.00
7541,-40.00
7542,-48.00
7543,-64.00
7544,-88.00
7545,-104.00
7546,-128.00
7547,-136.00
7548,-160.00
7549,-176.00
7550,-192.00
7551,-216.00
7552,-224.00
7553,-232.00
7554,-232.00
7555,-232.00
7556,-232.00
7557,-216.00
7558,-192.00
7559,-184.00
7560,-176.00
7561,-144.00
7562,-128.00
7563,-112.00
7564,-88.00
7565,-72.00
7566,-56.00
7567,-32.00
7568,-32.00
7569,-32.00
7570,-32.00
7571,-40.00
7572,-56.00
7573,-72.00
7574,-88.00
7575,-104.00
7576,-120.00
7577,-144.00
7578,-160.00
7579,-184.00
7580,-184.00
7581,-200.00
7582,-224.00
7583,-216.00
7584,-224.00
7585,-208.00
7586,-216.00
7587,-200.00
7588,-184.00
7589,-176.00
7590,-152.00
7591,-136.00
7592,-112.00
7593,-88.00
7594,-72.00
7595,-56.00
7596,-40.00
7597,-32.00
7598,-32.00
7599,-40.00
7600,-40.00
7601,-40.00
7602,-56.00
7603,-72.00
7604,-88.00
7605,-112.00
7606,-136.00
7607,-144.00
7608,-160.00
7609,-176.00
7610,-184.00
7611,-200.00
7612,-200.00
7613,-216.00
7614,-216.00
7615,-192.00
7616,-192.00
7617,-184.00
7618,-176.00
7619,-160.00
7620,-136.00
7621,-120.00
7622,-96.00
7623,-80.00
7624,-64.00
7625,-48.00
7626,-40.00
7627,-40.00
7628,-32.00
7629,-24.00
7630,-32.00
7631,-40.00
7632,-56.00
7633,-72.00
7634,-96.00
7635,-112.00
7636,-128.00
7637,-144.00
7638,-160.00
7639,-176.00
7640,-184.00
7641,-184.00
7642,-192.00
7643,-192.00
7644,-192.00
7645,-184.00
7646,-184.00
7647,-168.00
7648,-160.00
7649,-136.00
7650,-120.00
7651,-104.00
7652,-88.00
7653,-64.00
7654,-56.00
7655,-40.00
7656,-40.00
7657,-24.00
7658,-24.00
7659,-32.00
7660,-32.00
7661,-48.00
7662,-56.00
7663,-80.00
7664,-88.00
7665,-112.00
7666,-128.00
7667,-152.00
7668,-152.00
7669,-176.00
7670,-176.00
7671,-184.00
7672,-184.00
7673,-184.00
7674,-184.00
7675,-176.00
7676,-176.00
7677,-160.00
7678,-144.00
7679,-128.00
7680,-104.00
7681,-88.00
7682,-72.00
7683,-56.00
7684,-40.00
7685,-24.00
7686,-24.00
7687,-24.00
7688,-24.00
7689,-32.00
7690,-40.00
7691,-48.00
7692,-72.00
7693,-80.00
7694,-96.00
7695,-112.00
7696,-136.00
7697,-144.00
7698,-160.00
7699,-176.00
7700,-176.00
7701,-184.00
7702,-176.00
7703,-176.00
7704,-176.00
7705,-168.00
7706,-152.00
7707,-136.00
7708,-136.00
7709,-112.00
7710,-96.00
7711,-80.00
7712,-56.00
7713,-48.00
7714,-40.00
7715,-24.00
7716,-24.00
7717,-24.00
7718,-16.00
7719,-24.00
7720,-40.00
7721,-48.00
7722,-72.00
7723,-80.00
7724,-96.00
7725,-112.00
7726,-128.00
7727,-136.00
7728,-152.00
7729,-168.00
7730,-168.00
7731,-176.00
7732,-168.00
7733,-168.00
7734,-160.00
7735,-152.00
7736,-136.00
7737,-120.00
7738,-112.00
7739,-96.00
7740,-80.00
7741,-72.00
7742,-48.00
7743,128.00
7744,120.00
7745,104.00
7746,96.00
7747,96.00
7748,104.00
7749,120.00
7750,160.00
7751,176.00
7752,216.00
7753,272.00
7754,304.00
7755,344.00
7756,392.00
7757,432.00
7758,456.00
7759,464.00
7760,480.00
7761,496.00
7762,480.00
7763,464.00
7764,456.00
7765,432.00
7766,392.00
7767,336.00
7768,312.00
7769,272.00
7770,232.00
7771,192.00
7772,152.00
7773,128.00
7774,104.00
7775,96.00
7776,88.00
7777,96.00
7778,112.00
7779,128.00
7780,160.00
7781,192.00
7782,224.00
7783,272.00
7784,320.00
7785,360.00
7786,384.00
7787,416.00
7788,440.00
7789,456.00
7790,456.00
7791,456.00
7792,456.00
7793,456.00
7794,424.00
7795,392.00
7796,360.00
7797,320.00
7798,272.00
7799,232.00
7800,120.00
7801,104.00
7802,96.00
7803,88.00
7804,96.00
7805,96.00
7806,112.00
7807,136.00
7808,168.00
7809,192.00
7810,248.00
7811,280.00
7812,320.00
7813,344.00
7814,384.00
7815,408.00
7816,440.00
7817,448.00
7818,448.00
7819,448.00
7820,432.00
7821,424.00
7822,400.00
7823,360.00
7824,320.00
7825,288.00
7826,256.00
7827,208.00
7828,176.00
7829,136.00
7830,112.00
7831,96.00
7832,88.00
7833,88.00
7834,88.00
7835,96.00
7836,112.00
7837,144.00
7838,176.00
7839,208.00
7840,256.00
7841,288.00
7842,320.00
7843,352.00
7844,376.00
7845,392.00
7846,416.00
7847,432.00
7848,432.00
7849,424.00
7850,408.00
7851,384.00
7852,360.00
7853,328.00
7854,288.00
7855,264.00
7856,216.00
7857,176.00
7858,160.00
7859,120.00
7860,104.00
7861,88.00
7862,88.00
7863,88.00
7864,80.00
7865,96.00
7866,128.00
7867,152.00
7868,184.00
7869,216.00
7870,248.00
7871,280.00
7872,320.00
7873,344.00
7874,368.00
7875,392.00
7876,400.00
7877,408.00
7878,400.00
7879,392.00
7880,384.00
7881,360.00
7882,328.00
7883,296.00
7884,272.00
7885,224.00
7886,192.00
7887,168.00
7888,136.00
7889,96.00
7890,96.00
7891,80.00
7892,80.00
7893,88.00
7894,88.00
7895,104.00
7896,128.00
7897,160.00
7898,184.00
7899,224.00
7900,256.00
7901,272.00
7902,312.00
7903,336.00
7904,360.00
7905,376.00
7906,384.00
7907,384.00
7908,376.00
7909,360.00
7910,352.00
7911,328.00
7912,296.00
7913,272.00
7914,232.00
7915,208.00
7916,176.00
7917,144.00
7918,104.00
7919,96.00
7920,88.00
7921,88.00
7922,80.00
7923,80.00
7924,96.00
7925,104.00
7926,128.00
7927,168.00
7928,192.00
7929,224.00
7930,256.00
7931,280.00
7932,312.00
7933,344.00
7934,360.00
7935,360.00
7936,360.00
7937,360.00
7938,360.00
7939,344.00
7940,336.00
7941,296.00
7942,272.00
7943,240.00
7944,216.00
7945,176.00
7946,152.00
7947,120.00
7948,96.00
7949,88.00
7950,80.00
7951,80.00
7952,80.00
7953,80.00
7954,96.00
7955,112.00
7956,136.00
7957,168.00
7958,192.00
7959,224.00
7960,240.00
7961,280.00
7962,312.00
7963,328.00
7964,344.00
7965,336.00
7966,352.00
7967,344.00
7968,336.00
7969,328.00
7970,296.00
7971,272.00
7972,248.00
7973,216.00
7974,192.00
7975,168.00
7976,128.00
7977,104.00
7978,88.00
7979,80.00
7980,80.00
7981,72.00
7982,80.00
7983,88.00
7984,-88.00
7985,-64.00
7986,-56.00
7987,-56.00
7988,-56.00
7989,-56.00
7990,-80.00
7991,-88.00
7992,-104.00
7993,-128.00
7994,-152.00
7995,-184.00
7996,-200.00
7997,-232.00
7998,-256.00
7999,-280.00
